# r[nm],d[nm],daligned[nm],Uwater(d)[kj/mol]
0.0000000,0.0000000,0.0000000,457596812956998500352.0000000
0.0050000,0.0050000,0.0050000,537283815477166848.0000000
0.0100000,0.0100000,0.0100000,7327957278822336.0000000
0.0150000,0.0150000,0.0150000,311996798149275.5625000
0.0200000,0.0200000,0.0200000,25692784076313.0781250
0.0250000,0.0250000,0.0250000,3255956356684.6181641
0.0300000,0.0300000,0.0300000,559155603067.5760498
0.0350000,0.0350000,0.0350000,120358568558.9641418
0.0400000,0.0400000,0.0400000,30846929545.0259552
0.0450000,0.0450000,0.0450000,9084755058.3452053
0.0500000,0.0500000,0.0500000,2997403133.5909505
0.0550000,0.0550000,0.0550000,1087616856.4658604
0.0600000,0.0600000,0.0600000,427820476.2199194
0.0650000,0.0650000,0.0650000,180758708.8635708
0.0700000,0.0700000,0.0700000,80949576.1965670
0.0750000,0.0750000,0.0750000,38119549.4509311
0.0800000,0.0800000,0.0800000,18754929.8835339
0.0850000,0.0850000,0.0850000,9624341.2886195
0.0900000,0.0900000,0.0900000,5131847.6022663
0.0950000,0.0950000,0.0950000,2833543.6600640
0.1000000,0.1000000,0.1000000,1615095.7158329
0.1050000,0.1050000,0.1050000,947644.0417070
0.1100000,0.1100000,0.1100000,569181.0551097
0.1150000,0.1150000,0.1150000,350078.4273010
0.1200000,0.1200000,0.1200000,220007.1820517
0.1250000,0.1250000,0.1250000,140987.5568741
0.1300000,0.1300000,0.1300000,91958.2091147
0.1350000,0.1350000,0.1350000,60944.8335905
0.1400000,0.1400000,0.1400000,40979.4714087
0.1450000,0.1450000,0.1450000,27918.8014543
0.1500000,0.1500000,0.1500000,19249.1642510
0.1550000,0.1550000,0.1550000,13408.5687657
0.1600000,0.1600000,0.1600000,9430.1279064
0.1650000,0.1650000,0.1650000,6693.8925353
0.1700000,0.1700000,0.1700000,4792.2252724
0.1750000,0.1750000,0.1750000,3457.7597235
0.1800000,0.1800000,0.1800000,2512.9170110
0.1850000,0.1850000,0.1850000,1838.3734218
0.1900000,0.1900000,0.1900000,1373.8629645
0.1950000,0.1950000,0.1950000,1021.9005790
0.2000000,0.2000000,0.2000000,765.0343596
0.2050000,0.2050000,0.2050000,576.3652730
0.2100000,0.2100000,0.2100000,436.9400709
0.2150000,0.2150000,0.2150000,333.2861532
0.2200000,0.2200000,0.2200000,255.7580120
0.2250000,0.2250000,0.2250000,197.4250787
0.2300000,0.2300000,0.2300000,153.2958441
0.2350000,0.2350000,0.2350000,119.7519623
0.2400000,0.2400000,0.2400000,94.1370387
0.2450000,0.2450000,0.2450000,74.4720892
0.2500000,0.2500000,0.2500000,59.2724777
0.2550000,0.2550000,0.2550000,47.4337167
0.2600000,0.2600000,0.2600000,38.1463244
0.2650000,0.2650000,0.2650000,30.8162323
0.2700000,0.2700000,0.2700000,24.9952400
0.2750000,0.2750000,0.2750000,20.3331605
0.2800000,0.2800000,0.2800000,16.5538574
0.2850000,0.2850000,0.2850000,13.4475807
0.2900000,0.2900000,0.2900000,10.8659058
0.2950000,0.2950000,0.2950000,8.7095372
0.3000000,0.3000000,0.3000000,6.9108222
0.3050000,0.3050000,0.3050000,5.4183892
0.3100000,0.3100000,0.3100000,4.1879502
0.3150000,0.3150000,0.3150000,3.1786030
0.3200000,0.3200000,0.3200000,2.3523599
0.3250000,0.3250000,0.3250000,1.6751059
0.3300000,0.3300000,0.3300000,1.1178575
0.3350000,0.3350000,0.3350000,0.6575483
0.3400000,0.3400000,0.3400000,0.2769643
0.3450000,0.3450000,0.3450000,-0.0361220
0.3500000,0.3500000,0.3500000,-0.2903565
0.3550000,0.3550000,0.3550000,-0.4923782
0.3600000,0.3600000,0.3600000,-0.6481004
0.3650000,0.3650000,0.3650000,-0.7633928
0.3700000,0.3700000,0.3700000,-0.8441992
0.3750000,0.3750000,0.3750000,-0.8963416
0.3800000,0.3800000,0.3800000,-0.9252564
0.3850000,0.3850000,0.3850000,-0.9357959
0.3900000,0.3900000,0.3900000,-0.9321327
0.3950000,0.3950000,0.3950000,-0.9177511
0.4000000,0.4000000,0.4000000,-0.8954938
0.4050000,0.4050000,0.4050000,-0.8676383
0.4100000,0.4100000,0.4100000,-0.8359819
0.4150000,0.4150000,0.4150000,-0.8019248
0.4200000,0.4200000,0.4200000,-0.7665441
0.4250000,0.4250000,0.4250000,-0.7306588
0.4300000,0.4300000,0.4300000,-0.6948824
0.4350000,0.4350000,0.4350000,-0.6596674
0.4400000,0.4400000,0.4400000,-0.6253403
0.4450000,0.4450000,0.4450000,-0.5921298
0.4500000,0.4500000,0.4500000,-0.5601889
0.4550000,0.4550000,0.4550000,-0.5296130
0.4600000,0.4600000,0.4600000,-0.5004536
0.4650000,0.4650000,0.4650000,-0.4727287
0.4700000,0.4700000,0.4700000,-0.4464318
0.4750000,0.4750000,0.4750000,-0.4215383
0.4800000,0.4800000,0.4800000,-0.3980106
0.4850000,0.4850000,0.4850000,-0.3758018
0.4900000,0.4900000,0.4900000,-0.3548592
0.4950000,0.4950000,0.4950000,-0.3351263
0.5000000,0.5000000,0.5000000,-0.3165447
0.5050000,0.5050000,0.5050000,-0.2990554
0.5100000,0.5100000,0.5100000,-0.2825999
0.5150000,0.5150000,0.5150000,-0.2671205
0.5200000,0.5200000,0.5200000,-0.2525614
0.5250000,0.5250000,0.5250000,-0.2388689
0.5300000,0.5300000,0.5300000,-0.2259912
0.5350000,0.5350000,0.5350000,-0.2138792
0.5400000,0.5400000,0.5400000,-0.2024861
0.5450000,0.5450000,0.5450000,-0.1917677
0.5500000,0.5500000,0.5500000,-0.1816820
0.5550000,0.5550000,0.5550000,-0.1721897
0.5600000,0.5600000,0.5600000,-0.1632538
0.5650000,0.5650000,0.5650000,-0.1548393
0.5700000,0.5700000,0.5700000,-0.1469137
0.5750000,0.5750000,0.5750000,-0.1394462
0.5800000,0.5800000,0.5800000,-0.1324082
0.5850000,0.5850000,0.5850000,-0.1257727
0.5900000,0.5900000,0.5900000,-0.1195148
0.5950000,0.5950000,0.5950000,-0.1136108
0.6000000,0.6000000,0.6000000,-0.1080388
0.6050000,0.6050000,0.6050000,-0.1027783
0.6100000,0.6100000,0.6100000,-0.0978100
0.6150000,0.6150000,0.6150000,-0.0931161
0.6200000,0.6200000,0.6200000,-0.0886797
0.6250000,0.6250000,0.6250000,-0.0844852
0.6300000,0.6300000,0.6300000,-0.0805179
0.6350000,0.6350000,0.6350000,-0.0767642
0.6400000,0.6400000,0.6400000,-0.0732112
0.6450000,0.6450000,0.6450000,-0.0698469
0.6500000,0.6500000,0.6500000,-0.0666602
0.6550000,0.6550000,0.6550000,-0.0636406
0.6600000,0.6600000,0.6600000,-0.0607783
0.6650000,0.6650000,0.6650000,-0.0580641
0.6700000,0.6700000,0.6700000,-0.0554895
0.6750000,0.6750000,0.6750000,-0.0530463
0.6800000,0.6800000,0.6800000,-0.0507270
0.6850000,0.6850000,0.6850000,-0.0485246
0.6900000,0.6900000,0.6900000,-0.0464325
0.6950000,0.6950000,0.6950000,-0.0444444
0.7000000,0.7000000,0.7000000,-0.0425545
0.7050000,0.7050000,0.7050000,-0.0407574
0.7100000,0.7100000,0.7100000,-0.0390479
0.7150000,0.7150000,0.7150000,-0.0374212
0.7200000,0.7200000,0.7200000,-0.0358728
0.7250000,0.7250000,0.7250000,-0.0343984
0.7300000,0.7300000,0.7300000,-0.0329940
0.7350000,0.7350000,0.7350000,-0.0316560
0.7400000,0.7400000,0.7400000,-0.0303807
0.7450000,0.7450000,0.7450000,-0.0291648
0.7500000,0.7500000,0.7500000,-0.0280052
0.7550000,0.7550000,0.7550000,-0.0268989
0.7600000,0.7600000,0.7600000,-0.0258433
0.7650000,0.7650000,0.7650000,-0.0248355
0.7700000,0.7700000,0.7700000,-0.0238733
0.7750000,0.7750000,0.7750000,-0.0229542
0.7800000,0.7800000,0.7800000,-0.0220761
0.7850000,0.7850000,0.7850000,-0.0212369
0.7900000,0.7900000,0.7900000,-0.0204347
0.7950000,0.7950000,0.7950000,-0.0196675
0.8000000,0.8000000,0.8000000,-0.0189338
0.8050000,0.8050000,0.8050000,-0.0182317
0.8100000,0.8100000,0.8100000,-0.0175598
0.8150000,0.8150000,0.8150000,-0.0169166
0.8200000,0.8200000,0.8200000,-0.0163008
0.8250000,0.8250000,0.8250000,-0.0157109
0.8300000,0.8300000,0.8300000,-0.0151457
0.8350000,0.8350000,0.8350000,-0.0146042
0.8400000,0.8400000,0.8400000,-0.0140851
0.8450000,0.8450000,0.8450000,-0.0135873
0.8500000,0.8500000,0.8500000,-0.0131100
0.8550000,0.8550000,0.8550000,-0.0126522
0.8600000,0.8600000,0.8600000,-0.0122128
0.8650000,0.8650000,0.8650000,-0.0117912
0.8700000,0.8700000,0.8700000,-0.0113865
0.8750000,0.8750000,0.8750000,-0.0109979
0.8800000,0.8800000,0.8800000,-0.0106246
0.8850000,0.8850000,0.8850000,-0.0102661
0.8900000,0.8900000,0.8900000,-0.0099216
0.8950000,0.8950000,0.8950000,-0.0095905
0.9000000,0.9000000,0.9000000,-0.0092723
0.9050000,0.9050000,0.9050000,-0.0089663
0.9100000,0.9100000,0.9100000,-0.0086720
0.9150000,0.9150000,0.9150000,-0.0083889
0.9200000,0.9200000,0.9200000,-0.0081166
0.9250000,0.9250000,0.9250000,-0.0078545
0.9300000,0.9300000,0.9300000,-0.0076022
0.9350000,0.9350000,0.9350000,-0.0073594
0.9400000,0.9400000,0.9400000,-0.0071256
0.9450000,0.9450000,0.9450000,-0.0069003
0.9500000,0.9500000,0.9500000,-0.0066834
0.9550000,0.9550000,0.9550000,-0.0064744
0.9600000,0.9600000,0.9600000,-0.0062729
0.9650000,0.9650000,0.9650000,-0.0060788
0.9700000,0.9700000,0.9700000,-0.0058916
0.9750000,0.9750000,0.9750000,-0.0057111
0.9800000,0.9800000,0.9800000,-0.0055370
0.9850000,0.9850000,0.9850000,-0.0053691
0.9900000,0.9900000,0.9900000,-0.0052071
0.9950000,0.9950000,0.9950000,-0.0050508
1.0000000,1.0000000,1.0000000,-0.0048999
1.0050000,1.0050000,1.0050000,-0.0047543
1.0100000,1.0100000,1.0100000,-0.0046137
1.0150000,1.0150000,1.0150000,-0.0044779
1.0200000,1.0200000,1.0200000,-0.0043468
1.0250000,1.0250000,1.0250000,-0.0042201
1.0300000,1.0300000,1.0300000,-0.0040977
1.0350000,1.0350000,1.0350000,-0.0039795
1.0400000,1.0400000,1.0400000,-0.0038652
1.0450000,1.0450000,1.0450000,-0.0037547
1.0500000,1.0500000,1.0500000,-0.0036479
1.0550000,1.0550000,1.0550000,-0.0035446
1.0600000,1.0600000,1.0600000,-0.0034447
1.0650000,1.0650000,1.0650000,-0.0033481
1.0700000,1.0700000,1.0700000,-0.0032546
1.0750000,1.0750000,1.0750000,-0.0031642
1.0800000,1.0800000,1.0800000,-0.0030767
1.0850000,1.0850000,1.0850000,-0.0029920
1.0900000,1.0900000,1.0900000,-0.0029100
1.0950000,1.0950000,1.0950000,-0.0028306
1.1000000,1.1000000,1.1000000,-0.0027538
1.1050000,1.1050000,1.1050000,-0.0026793
1.1100000,1.1100000,1.1100000,-0.0026072
1.1150000,1.1150000,1.1150000,-0.0025374
1.1200000,1.1200000,1.1200000,-0.0024697
1.1250000,1.1250000,1.1250000,-0.0024041
1.1300000,1.1300000,1.1300000,-0.0023406
1.1350000,1.1350000,1.1350000,-0.0022790
1.1400000,1.1400000,1.1400000,-0.0022193
1.1450000,1.1450000,1.1450000,-0.0021614
1.1500000,1.1500000,1.1500000,-0.0021052
1.1550000,1.1550000,1.1550000,-0.0020508
1.1600000,1.1600000,1.1600000,-0.0019980
1.1650000,1.1650000,1.1650000,-0.0019467
1.1700000,1.1700000,1.1700000,-0.0018970
1.1750000,1.1750000,1.1750000,-0.0018488
1.1800000,1.1800000,1.1800000,-0.0018020
1.1850000,1.1850000,1.1850000,-0.0017566
1.1900000,1.1900000,1.1900000,-0.0017125
1.1950000,1.1950000,1.1950000,-0.0016697
1.2000000,1.2000000,1.2000000,-0.0016281
1.2050000,1.2050000,1.2050000,-0.0015878
1.2100000,1.2100000,1.2100000,-0.0015486
1.2150000,1.2150000,1.2150000,-0.0015105
1.2200000,1.2200000,1.2200000,-0.0014735
1.2250000,1.2250000,1.2250000,-0.0014376
1.2300000,1.2300000,1.2300000,-0.0014027
1.2350000,1.2350000,1.2350000,-0.0013687
1.2400000,1.2400000,1.2400000,-0.0013358
1.2450000,1.2450000,1.2450000,-0.0013037
1.2500000,1.2500000,1.2500000,-0.0012725
1.2550000,1.2550000,1.2550000,-0.0012423
1.2600000,1.2600000,1.2600000,-0.0012128
1.2650000,1.2650000,1.2650000,-0.0011842
1.2700000,1.2700000,1.2700000,-0.0011563
1.2750000,1.2750000,1.2750000,-0.0011292
1.2800000,1.2800000,1.2800000,-0.0011029
1.2850000,1.2850000,1.2850000,-0.0010772
1.2900000,1.2900000,1.2900000,-0.0010523
1.2950000,1.2950000,1.2950000,-0.0010280
1.3000000,1.3000000,1.3000000,-0.0010044
1.3050000,1.3050000,1.3050000,-0.0009814
1.3100000,1.3100000,1.3100000,-0.0009590
1.3150000,1.3150000,1.3150000,-0.0009372
1.3200000,1.3200000,1.3200000,-0.0009160
1.3250000,1.3250000,1.3250000,-0.0008953
1.3300000,1.3300000,1.3300000,-0.0008752
1.3350000,1.3350000,1.3350000,-0.0008556
1.3400000,1.3400000,1.3400000,-0.0008366
1.3450000,1.3450000,1.3450000,-0.0008180
1.3500000,1.3500000,1.3500000,-0.0007999
1.3550000,1.3550000,1.3550000,-0.0007822
1.3600000,1.3600000,1.3600000,-0.0007651
1.3650000,1.3650000,1.3650000,-0.0007483
1.3700000,1.3700000,1.3700000,-0.0007320
1.3750000,1.3750000,1.3750000,-0.0007161
1.3800000,1.3800000,1.3800000,-0.0007006
1.3850000,1.3850000,1.3850000,-0.0006855
1.3900000,1.3900000,1.3900000,-0.0006707
1.3950000,1.3950000,1.3950000,-0.0006564
1.4000000,1.4000000,1.4000000,-0.0006424
1.4050000,1.4050000,1.4050000,-0.0006287
1.4100000,1.4100000,1.4100000,-0.0006154
1.4150000,1.4150000,1.4150000,-0.0006024
1.4200000,1.4200000,1.4200000,-0.0005897
1.4250000,1.4250000,1.4250000,-0.0005773
1.4300000,1.4300000,1.4300000,-0.0005653
1.4350000,1.4350000,1.4350000,-0.0005535
1.4400000,1.4400000,1.4400000,-0.0005420
1.4450000,1.4450000,1.4450000,-0.0005308
1.4500000,1.4500000,1.4500000,-0.0005199
1.4550000,1.4550000,1.4550000,-0.0005092
1.4600000,1.4600000,1.4600000,-0.0004988
1.4650000,1.4650000,1.4650000,-0.0004886
1.4700000,1.4700000,1.4700000,-0.0004787
1.4750000,1.4750000,1.4750000,-0.0004690
1.4800000,1.4800000,1.4800000,-0.0004595
1.4850000,1.4850000,1.4850000,-0.0004502
1.4900000,1.4900000,1.4900000,-0.0004412
1.4950000,1.4950000,1.4950000,-0.0004324
1.5000000,1.5000000,1.5000000,-0.0004238
1.5050000,1.5050000,1.5050000,-0.0004154
1.5100000,1.5100000,1.5100000,-0.0004071
1.5150000,1.5150000,1.5150000,-0.0003991
1.5200000,1.5200000,1.5200000,-0.0003913
1.5250000,1.5250000,1.5250000,-0.0003836
1.5300000,1.5300000,1.5300000,-0.0003761
1.5350000,1.5350000,1.5350000,-0.0003688
1.5400000,1.5400000,1.5400000,-0.0003616
1.5450000,1.5450000,1.5450000,-0.0003546
1.5500000,1.5500000,1.5500000,-0.0003478
1.5550000,1.5550000,1.5550000,-0.0003411
1.5600000,1.5600000,1.5600000,-0.0003346
1.5650000,1.5650000,1.5650000,-0.0003282
1.5700000,1.5700000,1.5700000,-0.0003219
1.5750000,1.5750000,1.5750000,-0.0003158
1.5800000,1.5800000,1.5800000,-0.0003098
1.5850000,1.5850000,1.5850000,-0.0003040
1.5900000,1.5900000,1.5900000,-0.0002983
1.5950000,1.5950000,1.5950000,-0.0002927
