# r[nm],d[nm],daligned[nm],Uwater(d)[kj/mol]
0.0000000,0.0000000,0.0000000,259982935.2735786
0.0050000,0.0050000,0.0050000,233406007.9206235
0.0100000,0.0100000,0.0100000,199227520.5484370
0.0150000,0.0150000,0.0150000,161624007.6819759
0.0200000,0.0200000,0.0200000,125582633.9685286
0.0250000,0.0250000,0.0250000,93969033.2194542
0.0300000,0.0300000,0.0300000,68094552.0894852
0.0350000,0.0350000,0.0350000,48052599.4932499
0.0400000,0.0400000,0.0400000,33195599.2913856
0.0450000,0.0450000,0.0450000,22558291.0608334
0.0500000,0.0500000,0.0500000,15145630.5611608
0.0550000,0.0550000,0.0550000,10085566.8449725
0.0600000,0.0600000,0.0600000,6683107.7691905
0.0650000,0.0650000,0.0650000,4414678.4468007
0.0700000,0.0700000,0.0700000,2916950.0671956
0.0750000,0.0750000,0.0750000,1931666.5956689
0.0800000,0.0800000,0.0800000,1284231.1347247
0.0850000,0.0850000,0.0850000,857038.8620399
0.0900000,0.0900000,0.0900000,574447.1974815
0.0950000,0.0950000,0.0950000,387498.1568192
0.1000000,0.1000000,0.1000000,263224.8053802
0.1050000,0.1050000,0.1050000,180147.2443684
0.1100000,0.1100000,0.1100000,124258.3338026
0.1150000,0.1150000,0.1150000,86402.8967252
0.1200000,0.1200000,0.1200000,60576.3368344
0.1250000,0.1250000,0.1250000,42823.2306388
0.1300000,0.1300000,0.1300000,30386.2409683
0.1350000,0.1350000,0.1350000,21633.9852146
0.1400000,0.1400000,0.1400000,15509.2994347
0.1450000,0.1450000,0.1450000,11188.6615863
0.1500000,0.1500000,0.1500000,8117.3389965
0.1550000,0.1550000,0.1550000,5924.8806951
0.1600000,0.1600000,0.1600000,4349.3911752
0.1650000,0.1650000,0.1650000,3209.9296515
0.1700000,0.1700000,0.1700000,2380.6607455
0.1750000,0.1750000,0.1750000,1799.0720723
0.1800000,0.1800000,0.1800000,1351.9323109
0.1850000,0.1850000,0.1850000,1020.7979045
0.1900000,0.1900000,0.1900000,774.2196895
0.1950000,0.1950000,0.1950000,589.5360444
0.2000000,0.2000000,0.2000000,450.3271372
0.2050000,0.2050000,0.2050000,344.7935481
0.2100000,0.2100000,0.2100000,264.4220307
0.2150000,0.2150000,0.2150000,202.8780039
0.2200000,0.2200000,0.2200000,155.4953073
0.2250000,0.2250000,0.2250000,118.9486049
0.2300000,0.2300000,0.2300000,90.7896000
0.2350000,0.2350000,0.2350000,69.1239010
0.2400000,0.2400000,0.2400000,52.4708431
0.2450000,0.2450000,0.2450000,39.6813175
0.2500000,0.2500000,0.2500000,29.8686737
0.2550000,0.2550000,0.2550000,22.3501130
0.2600000,0.2600000,0.2600000,16.5995959
0.2650000,0.2650000,0.2650000,12.2110080
0.2700000,0.2700000,0.2700000,8.8690246
0.2750000,0.2750000,0.2750000,6.3253951
0.2800000,0.2800000,0.2800000,4.3811516
0.2850000,0.2850000,0.2850000,2.8778175
0.2900000,0.2900000,0.2900000,1.6967654
0.2950000,0.2950000,0.2950000,0.7582925
0.3000000,0.3000000,0.3000000,0.0133811
0.3050000,0.3050000,0.3050000,-0.5688959
0.3100000,0.3100000,0.3100000,-1.0113816
0.3150000,0.3150000,0.3150000,-1.3340123
0.3200000,0.3200000,0.3200000,-1.5560173
0.3250000,0.3250000,0.3250000,-1.6968689
0.3300000,0.3300000,0.3300000,-1.7762672
0.3350000,0.3350000,0.3350000,-1.8129579
0.3400000,0.3400000,0.3400000,-1.8226751
0.3450000,0.3450000,0.3450000,-1.8162624
0.3500000,0.3500000,0.3500000,-1.7992709
0.3550000,0.3550000,0.3550000,-1.7735179
0.3600000,0.3600000,0.3600000,-1.7396935
0.3650000,0.3650000,0.3650000,-1.6994469
0.3700000,0.3700000,0.3700000,-1.6559744
0.3750000,0.3750000,0.3750000,-1.6131690
0.3800000,0.3800000,0.3800000,-1.5741702
0.3850000,0.3850000,0.3850000,-1.5403780
0.3900000,0.3900000,0.3900000,-1.5113891
0.3950000,0.3950000,0.3950000,-1.4855313
0.4000000,0.4000000,0.4000000,-1.4606054
0.4050000,0.4050000,0.4050000,-1.4346385
0.4100000,0.4100000,0.4100000,-1.4064172
0.4150000,0.4150000,0.4150000,-1.3755862
0.4200000,0.4200000,0.4200000,-1.3423408
0.4250000,0.4250000,0.4250000,-1.3069921
0.4300000,0.4300000,0.4300000,-1.2697006
0.4350000,0.4350000,0.4350000,-1.2304764
0.4400000,0.4400000,0.4400000,-1.1893744
0.4450000,0.4450000,0.4450000,-1.1467893
0.4500000,0.4500000,0.4500000,-1.1037733
0.4550000,0.4550000,0.4550000,-1.0622196
0.4600000,0.4600000,0.4600000,-1.0246665
0.4650000,0.4650000,0.4650000,-0.9936207
0.4700000,0.4700000,0.4700000,-0.9706643
0.4750000,0.4750000,0.4750000,-0.9558441
0.4800000,0.4800000,0.4800000,-0.9476573
0.4850000,0.4850000,0.4850000,-0.9435553
0.4900000,0.4900000,0.4900000,-0.9407045
0.4950000,0.4950000,0.4950000,-0.9367831
0.5000000,0.5000000,0.5000000,-0.9305351
0.5050000,0.5050000,0.5050000,-0.9217745
0.5100000,0.5100000,0.5100000,-0.9108423
0.5150000,0.5150000,0.5150000,-0.8979432
0.5200000,0.5200000,0.5200000,-0.8828539
0.5250000,0.5250000,0.5250000,-0.8650933
0.5300000,0.5300000,0.5300000,-0.8442704
0.5350000,0.5350000,0.5350000,-0.8203149
0.5400000,0.5400000,0.5400000,-0.7935088
0.5450000,0.5450000,0.5450000,-0.7643890
0.5500000,0.5500000,0.5500000,-0.7336123
0.5550000,0.5550000,0.5550000,-0.7018439
0.5600000,0.5600000,0.5600000,-0.6696860
0.5650000,0.5650000,0.5650000,-0.6376432
0.5700000,0.5700000,0.5700000,-0.6061140
0.5750000,0.5750000,0.5750000,-0.5753973
0.5800000,0.5800000,0.5800000,-0.5457058
0.5850000,0.5850000,0.5850000,-0.5171810
0.5900000,0.5900000,0.5900000,-0.4899087
0.5950000,0.5950000,0.5950000,-0.4639315
0.6000000,0.6000000,0.6000000,-0.4392601
0.6050000,0.6050000,0.6050000,-0.4158814
0.6100000,0.6100000,0.6100000,-0.3937661
0.6150000,0.6150000,0.6150000,-0.3728731
0.6200000,0.6200000,0.6200000,-0.3531541
0.6250000,0.6250000,0.6250000,-0.3345561
0.6300000,0.6300000,0.6300000,-0.3170239
0.6350000,0.6350000,0.6350000,-0.3005018
0.6400000,0.6400000,0.6400000,-0.2849340
0.6450000,0.6450000,0.6450000,-0.2702665
0.6500000,0.6500000,0.6500000,-0.2564466
0.6550000,0.6550000,0.6550000,-0.2434240
0.6600000,0.6600000,0.6600000,-0.2311506
0.6650000,0.6650000,0.6650000,-0.2195808
0.6700000,0.6700000,0.6700000,-0.2086714
0.6750000,0.6750000,0.6750000,-0.1983818
0.6800000,0.6800000,0.6800000,-0.1886737
0.6850000,0.6850000,0.6850000,-0.1795112
0.6900000,0.6900000,0.6900000,-0.1708605
0.6950000,0.6950000,0.6950000,-0.1626900
0.7000000,0.7000000,0.7000000,-0.1549702
0.7050000,0.7050000,0.7050000,-0.1476735
0.7100000,0.7100000,0.7100000,-0.1407740
0.7150000,0.7150000,0.7150000,-0.1342474
0.7200000,0.7200000,0.7200000,-0.1280713
0.7250000,0.7250000,0.7250000,-0.1222244
0.7300000,0.7300000,0.7300000,-0.1166870
0.7350000,0.7350000,0.7350000,-0.1114407
0.7400000,0.7400000,0.7400000,-0.1064682
0.7450000,0.7450000,0.7450000,-0.1017533
0.7500000,0.7500000,0.7500000,-0.0972810
0.7550000,0.7550000,0.7550000,-0.0930371
0.7600000,0.7600000,0.7600000,-0.0890084
0.7650000,0.7650000,0.7650000,-0.0851826
0.7700000,0.7700000,0.7700000,-0.0815481
0.7750000,0.7750000,0.7750000,-0.0780939
0.7800000,0.7800000,0.7800000,-0.0748100
0.7850000,0.7850000,0.7850000,-0.0716868
0.7900000,0.7900000,0.7900000,-0.0687153
0.7950000,0.7950000,0.7950000,-0.0658872
0.8000000,0.8000000,0.8000000,-0.0631947
0.8050000,0.8050000,0.8050000,-0.0606302
0.8100000,0.8100000,0.8100000,-0.0581869
0.8150000,0.8150000,0.8150000,-0.0558583
0.8200000,0.8200000,0.8200000,-0.0536382
0.8250000,0.8250000,0.8250000,-0.0515209
0.8300000,0.8300000,0.8300000,-0.0495009
0.8350000,0.8350000,0.8350000,-0.0475732
0.8400000,0.8400000,0.8400000,-0.0457329
0.8450000,0.8450000,0.8450000,-0.0439755
0.8500000,0.8500000,0.8500000,-0.0422968
0.8550000,0.8550000,0.8550000,-0.0406928
0.8600000,0.8600000,0.8600000,-0.0391596
0.8650000,0.8650000,0.8650000,-0.0376937
0.8700000,0.8700000,0.8700000,-0.0362917
0.8750000,0.8750000,0.8750000,-0.0349504
0.8800000,0.8800000,0.8800000,-0.0336669
0.8850000,0.8850000,0.8850000,-0.0324383
0.8900000,0.8900000,0.8900000,-0.0312619
0.8950000,0.8950000,0.8950000,-0.0301353
0.9000000,0.9000000,0.9000000,-0.0290559
0.9050000,0.9050000,0.9050000,-0.0280215
0.9100000,0.9100000,0.9100000,-0.0270300
0.9150000,0.9150000,0.9150000,-0.0260794
0.9200000,0.9200000,0.9200000,-0.0251677
0.9250000,0.9250000,0.9250000,-0.0242931
0.9300000,0.9300000,0.9300000,-0.0234539
0.9350000,0.9350000,0.9350000,-0.0226485
0.9400000,0.9400000,0.9400000,-0.0218753
0.9450000,0.9450000,0.9450000,-0.0211328
0.9500000,0.9500000,0.9500000,-0.0204196
0.9550000,0.9550000,0.9550000,-0.0197345
0.9600000,0.9600000,0.9600000,-0.0190761
0.9650000,0.9650000,0.9650000,-0.0184433
0.9700000,0.9700000,0.9700000,-0.0178349
0.9750000,0.9750000,0.9750000,-0.0172499
0.9800000,0.9800000,0.9800000,-0.0166872
0.9850000,0.9850000,0.9850000,-0.0161459
0.9900000,0.9900000,0.9900000,-0.0156250
0.9950000,0.9950000,0.9950000,-0.0151237
1.0000000,1.0000000,1.0000000,-0.0146411
1.0050000,1.0050000,1.0050000,-0.0141764
1.0100000,1.0100000,1.0100000,-0.0137288
1.0150000,1.0150000,1.0150000,-0.0132977
1.0200000,1.0200000,1.0200000,-0.0128824
1.0250000,1.0250000,1.0250000,-0.0124821
1.0300000,1.0300000,1.0300000,-0.0120963
1.0350000,1.0350000,1.0350000,-0.0117244
1.0400000,1.0400000,1.0400000,-0.0113658
1.0450000,1.0450000,1.0450000,-0.0110199
1.0500000,1.0500000,1.0500000,-0.0106863
1.0550000,1.0550000,1.0550000,-0.0103644
1.0600000,1.0600000,1.0600000,-0.0100538
1.0650000,1.0650000,1.0650000,-0.0097540
1.0700000,1.0700000,1.0700000,-0.0094646
1.0750000,1.0750000,1.0750000,-0.0091852
1.0800000,1.0800000,1.0800000,-0.0089153
1.0850000,1.0850000,1.0850000,-0.0086547
1.0900000,1.0900000,1.0900000,-0.0084029
1.0950000,1.0950000,1.0950000,-0.0081597
1.1000000,1.1000000,1.1000000,-0.0079246
1.1050000,1.1050000,1.1050000,-0.0076974
1.1100000,1.1100000,1.1100000,-0.0074778
1.1150000,1.1150000,1.1150000,-0.0072654
1.1200000,1.1200000,1.1200000,-0.0070601
1.1250000,1.1250000,1.1250000,-0.0068615
1.1300000,1.1300000,1.1300000,-0.0066694
1.1350000,1.1350000,1.1350000,-0.0064835
1.1400000,1.1400000,1.1400000,-0.0063036
1.1450000,1.1450000,1.1450000,-0.0061296
1.1500000,1.1500000,1.1500000,-0.0059611
1.1550000,1.1550000,1.1550000,-0.0057980
1.1600000,1.1600000,1.1600000,-0.0056401
1.1650000,1.1650000,1.1650000,-0.0054871
1.1700000,1.1700000,1.1700000,-0.0053390
1.1750000,1.1750000,1.1750000,-0.0051956
1.1800000,1.1800000,1.1800000,-0.0050566
1.1850000,1.1850000,1.1850000,-0.0049219
1.1900000,1.1900000,1.1900000,-0.0047913
1.1950000,1.1950000,1.1950000,-0.0046648
1.2000000,1.2000000,1.2000000,-0.0045422
1.2050000,1.2050000,1.2050000,-0.0044233
1.2100000,1.2100000,1.2100000,-0.0043080
1.2150000,1.2150000,1.2150000,-0.0041962
1.2200000,1.2200000,1.2200000,-0.0040878
1.2250000,1.2250000,1.2250000,-0.0039826
1.2300000,1.2300000,1.2300000,-0.0038806
1.2350000,1.2350000,1.2350000,-0.0037816
1.2400000,1.2400000,1.2400000,-0.0036855
1.2450000,1.2450000,1.2450000,-0.0035923
1.2500000,1.2500000,1.2500000,-0.0035017
1.2550000,1.2550000,1.2550000,-0.0034139
1.2600000,1.2600000,1.2600000,-0.0033285
1.2650000,1.2650000,1.2650000,-0.0032457
1.2700000,1.2700000,1.2700000,-0.0031652
1.2750000,1.2750000,1.2750000,-0.0030871
1.2800000,1.2800000,1.2800000,-0.0030112
1.2850000,1.2850000,1.2850000,-0.0029374
1.2900000,1.2900000,1.2900000,-0.0028658
1.2950000,1.2950000,1.2950000,-0.0027962
1.3000000,1.3000000,1.3000000,-0.0027285
1.3050000,1.3050000,1.3050000,-0.0026627
1.3100000,1.3100000,1.3100000,-0.0025988
1.3150000,1.3150000,1.3150000,-0.0025366
1.3200000,1.3200000,1.3200000,-0.0024762
1.3250000,1.3250000,1.3250000,-0.0024174
1.3300000,1.3300000,1.3300000,-0.0023603
1.3350000,1.3350000,1.3350000,-0.0023047
1.3400000,1.3400000,1.3400000,-0.0022506
1.3450000,1.3450000,1.3450000,-0.0021980
1.3500000,1.3500000,1.3500000,-0.0021468
1.3550000,1.3550000,1.3550000,-0.0020970
1.3600000,1.3600000,1.3600000,-0.0020485
1.3650000,1.3650000,1.3650000,-0.0020014
1.3700000,1.3700000,1.3700000,-0.0019555
1.3750000,1.3750000,1.3750000,-0.0019108
1.3800000,1.3800000,1.3800000,-0.0018672
1.3850000,1.3850000,1.3850000,-0.0018249
1.3900000,1.3900000,1.3900000,-0.0017836
1.3950000,1.3950000,1.3950000,-0.0017434
1.4000000,1.4000000,1.4000000,-0.0017043
1.4050000,1.4050000,1.4050000,-0.0016662
1.4100000,1.4100000,1.4100000,-0.0016291
1.4150000,1.4150000,1.4150000,-0.0015929
1.4200000,1.4200000,1.4200000,-0.0015576
1.4250000,1.4250000,1.4250000,-0.0015233
1.4300000,1.4300000,1.4300000,-0.0014898
1.4350000,1.4350000,1.4350000,-0.0014572
1.4400000,1.4400000,1.4400000,-0.0014254
1.4450000,1.4450000,1.4450000,-0.0013944
1.4500000,1.4500000,1.4500000,-0.0013642
1.4550000,1.4550000,1.4550000,-0.0013348
1.4600000,1.4600000,1.4600000,-0.0013060
1.4650000,1.4650000,1.4650000,-0.0012780
1.4700000,1.4700000,1.4700000,-0.0012507
1.4750000,1.4750000,1.4750000,-0.0012241
1.4800000,1.4800000,1.4800000,-0.0011981
1.4850000,1.4850000,1.4850000,-0.0011727
1.4900000,1.4900000,1.4900000,-0.0011480
1.4950000,1.4950000,1.4950000,-0.0011239
1.5000000,1.5000000,1.5000000,-0.0011003
1.5050000,1.5050000,1.5050000,-0.0010774
1.5100000,1.5100000,1.5100000,-0.0010549
1.5150000,1.5150000,1.5150000,-0.0010331
1.5200000,1.5200000,1.5200000,-0.0010117
1.5250000,1.5250000,1.5250000,-0.0009908
1.5300000,1.5300000,1.5300000,-0.0009705
1.5350000,1.5350000,1.5350000,-0.0009506
1.5400000,1.5400000,1.5400000,-0.0009312
1.5450000,1.5450000,1.5450000,-0.0009123
1.5500000,1.5500000,1.5500000,-0.0008938
1.5550000,1.5550000,1.5550000,-0.0008757
1.5600000,1.5600000,1.5600000,-0.0008581
1.5650000,1.5650000,1.5650000,-0.0008408
1.5700000,1.5700000,1.5700000,-0.0008240
1.5750000,1.5750000,1.5750000,-0.0008075
1.5800000,1.5800000,1.5800000,-0.0007915
1.5850000,1.5850000,1.5850000,-0.0007758
1.5900000,1.5900000,1.5900000,-0.0007604
1.5950000,1.5950000,1.5950000,-0.0007454
