# r[nm],d[nm],daligned[nm],Uwater(d)[kj/mol]
0.0000000,0.0000000,0.0000000,2185173.2359683
0.0050000,0.0050000,0.0050000,2160833.9383259
0.0100000,0.0100000,0.0100000,2089692.8182979
0.0150000,0.0150000,0.0150000,1977108.4478137
0.0200000,0.0200000,0.0200000,1831166.8522085
0.0250000,0.0250000,0.0250000,1661608.1560590
0.0300000,0.0300000,0.0300000,1478651.0852545
0.0350000,0.0350000,0.0350000,1291925.2339357
0.0400000,0.0400000,0.0400000,1109664.5471558
0.0450000,0.0450000,0.0450000,938234.3400500
0.0500000,0.0500000,0.0500000,781985.4970946
0.0550000,0.0550000,0.0550000,643372.7621282
0.0600000,0.0600000,0.0600000,523246.8049873
0.0650000,0.0650000,0.0650000,421229.0533936
0.0700000,0.0700000,0.0700000,336095.1589013
0.0750000,0.0750000,0.0750000,266117.3498717
0.0800000,0.0800000,0.0800000,209339.8757137
0.0850000,0.0850000,0.0850000,163780.6903318
0.0900000,0.0900000,0.0900000,127564.9471605
0.0950000,0.0950000,0.0950000,99002.3192132
0.1000000,0.1000000,0.1000000,76622.1205917
0.1050000,0.1050000,0.1050000,59179.3672968
0.1100000,0.1100000,0.1100000,45642.6809849
0.1150000,0.1150000,0.1150000,35172.2912438
0.1200000,0.1200000,0.1200000,27093.9075316
0.1250000,0.1250000,0.1250000,20872.1805451
0.1300000,0.1300000,0.1300000,16085.9242546
0.1350000,0.1350000,0.1350000,12406.1845800
0.1400000,0.1400000,0.1400000,9577.5324294
0.1450000,0.1450000,0.1450000,7402.5323221
0.1500000,0.1500000,0.1500000,5729.1078975
0.1550000,0.1550000,0.1550000,4440.4243452
0.1600000,0.1600000,0.1600000,3446.8851684
0.1650000,0.1650000,0.1650000,2679.8620926
0.1700000,0.1700000,0.1700000,2086.8197646
0.1750000,0.1750000,0.1750000,1631.2987158
0.1800000,0.1800000,0.1800000,1275.0097135
0.1850000,0.1850000,0.1850000,998.1189351
0.1900000,0.1900000,0.1900000,782.5412046
0.1950000,0.1950000,0.1950000,614.3927116
0.2000000,0.2000000,0.2000000,483.0004103
0.2050000,0.2050000,0.2050000,380.1468756
0.2100000,0.2100000,0.2100000,299.4947060
0.2150000,0.2150000,0.2150000,236.1476540
0.2200000,0.2200000,0.2200000,186.3157984
0.2250000,0.2250000,0.2250000,147.0598637
0.2300000,0.2300000,0.2300000,116.0957545
0.2350000,0.2350000,0.2350000,91.6449259
0.2400000,0.2400000,0.2400000,72.3196692
0.2450000,0.2450000,0.2450000,57.0350214
0.2500000,0.2500000,0.2500000,44.9410013
0.2550000,0.2550000,0.2550000,35.3703862
0.2600000,0.2600000,0.2600000,27.7983875
0.2650000,0.2650000,0.2650000,21.8114446
0.2700000,0.2700000,0.2700000,17.0829759
0.2750000,0.2750000,0.2750000,13.3543234
0.2800000,0.2800000,0.2800000,10.4194759
0.2850000,0.2850000,0.2850000,8.1126836
0.2900000,0.2900000,0.2900000,6.2987776
0.2950000,0.2950000,0.2950000,4.8666484
0.3000000,0.3000000,0.3000000,3.7262465
0.3050000,0.3050000,0.3050000,2.8080066
0.3100000,0.3100000,0.3100000,2.0620220
0.3150000,0.3150000,0.3150000,1.4548397
0.3200000,0.3200000,0.3200000,0.9641661
0.3250000,0.3250000,0.3250000,0.5734334
0.3300000,0.3300000,0.3300000,0.2678975
0.3350000,0.3350000,0.3350000,0.0327064
0.3400000,0.3400000,0.3400000,-0.1474824
0.3450000,0.3450000,0.3450000,-0.2877706
0.3500000,0.3500000,0.3500000,-0.4015015
0.3550000,0.3550000,0.3550000,-0.4987017
0.3600000,0.3600000,0.3600000,-0.5854721
0.3650000,0.3650000,0.3650000,-0.6646670
0.3700000,0.3700000,0.3700000,-0.7373275
0.3750000,0.3750000,0.3750000,-0.8040294
0.3800000,0.3800000,0.3800000,-0.8655258
0.3850000,0.3850000,0.3850000,-0.9226027
0.3900000,0.3900000,0.3900000,-0.9756043
0.3950000,0.3950000,0.3950000,-1.0241760
0.4000000,0.4000000,0.4000000,-1.0674122
0.4050000,0.4050000,0.4050000,-1.1042369
0.4100000,0.4100000,0.4100000,-1.1337929
0.4150000,0.4150000,0.4150000,-1.1557004
0.4200000,0.4200000,0.4200000,-1.1700843
0.4250000,0.4250000,0.4250000,-1.1773766
0.4300000,0.4300000,0.4300000,-1.1780726
0.4350000,0.4350000,0.4350000,-1.1726139
0.4400000,0.4400000,0.4400000,-1.1614189
0.4450000,0.4450000,0.4450000,-1.1449863
0.4500000,0.4500000,0.4500000,-1.1239772
0.4550000,0.4550000,0.4550000,-1.0991742
0.4600000,0.4600000,0.4600000,-1.0713226
0.4650000,0.4650000,0.4650000,-1.0409972
0.4700000,0.4700000,0.4700000,-1.0086009
0.4750000,0.4750000,0.4750000,-0.9744570
0.4800000,0.4800000,0.4800000,-0.9388991
0.4850000,0.4850000,0.4850000,-0.9023075
0.4900000,0.4900000,0.4900000,-0.8650977
0.4950000,0.4950000,0.4950000,-0.8276886
0.5000000,0.5000000,0.5000000,-0.7904696
0.5050000,0.5050000,0.5050000,-0.7537792
0.5100000,0.5100000,0.5100000,-0.7178948
0.5150000,0.5150000,0.5150000,-0.6830319
0.5200000,0.5200000,0.5200000,-0.6493484
0.5250000,0.5250000,0.5250000,-0.6169525
0.5300000,0.5300000,0.5300000,-0.5859109
0.5350000,0.5350000,0.5350000,-0.5562570
0.5400000,0.5400000,0.5400000,-0.5279979
0.5450000,0.5450000,0.5450000,-0.5011212
0.5500000,0.5500000,0.5500000,-0.4755994
0.5550000,0.5550000,0.5550000,-0.4513946
0.5600000,0.5600000,0.5600000,-0.4284613
0.5650000,0.5650000,0.5650000,-0.4067493
0.5700000,0.5700000,0.5700000,-0.3862053
0.5750000,0.5750000,0.5750000,-0.3667749
0.5800000,0.5800000,0.5800000,-0.3484031
0.5850000,0.5850000,0.5850000,-0.3310357
0.5900000,0.5900000,0.5900000,-0.3146194
0.5950000,0.5950000,0.5950000,-0.2991028
0.6000000,0.6000000,0.6000000,-0.2844361
0.6050000,0.6050000,0.6050000,-0.2705715
0.6100000,0.6100000,0.6100000,-0.2574637
0.6150000,0.6150000,0.6150000,-0.2450693
0.6200000,0.6200000,0.6200000,-0.2333473
0.6250000,0.6250000,0.6250000,-0.2222587
0.6300000,0.6300000,0.6300000,-0.2117669
0.6350000,0.6350000,0.6350000,-0.2018372
0.6400000,0.6400000,0.6400000,-0.1924370
0.6450000,0.6450000,0.6450000,-0.1835353
0.6500000,0.6500000,0.6500000,-0.1751034
0.6550000,0.6550000,0.6550000,-0.1671141
0.6600000,0.6600000,0.6600000,-0.1595417
0.6650000,0.6650000,0.6650000,-0.1523622
0.6700000,0.6700000,0.6700000,-0.1455531
0.6750000,0.6750000,0.6750000,-0.1390931
0.6800000,0.6800000,0.6800000,-0.1329625
0.6850000,0.6850000,0.6850000,-0.1271424
0.6900000,0.6900000,0.6900000,-0.1216153
0.6950000,0.6950000,0.6950000,-0.1163649
0.7000000,0.7000000,0.7000000,-0.1113754
0.7050000,0.7050000,0.7050000,-0.1066326
0.7100000,0.7100000,0.7100000,-0.1021226
0.7150000,0.7150000,0.7150000,-0.0978327
0.7200000,0.7200000,0.7200000,-0.0937508
0.7250000,0.7250000,0.7250000,-0.0898655
0.7300000,0.7300000,0.7300000,-0.0861662
0.7350000,0.7350000,0.7350000,-0.0826429
0.7400000,0.7400000,0.7400000,-0.0792862
0.7450000,0.7450000,0.7450000,-0.0760871
0.7500000,0.7500000,0.7500000,-0.0730373
0.7550000,0.7550000,0.7550000,-0.0701290
0.7600000,0.7600000,0.7600000,-0.0673547
0.7650000,0.7650000,0.7650000,-0.0647074
0.7700000,0.7700000,0.7700000,-0.0621806
0.7750000,0.7750000,0.7750000,-0.0597681
0.7800000,0.7800000,0.7800000,-0.0574641
0.7850000,0.7850000,0.7850000,-0.0552629
0.7900000,0.7900000,0.7900000,-0.0531595
0.7950000,0.7950000,0.7950000,-0.0511489
0.8000000,0.8000000,0.8000000,-0.0492264
0.8050000,0.8050000,0.8050000,-0.0473877
0.8100000,0.8100000,0.8100000,-0.0456286
0.8150000,0.8150000,0.8150000,-0.0439453
0.8200000,0.8200000,0.8200000,-0.0423340
0.8250000,0.8250000,0.8250000,-0.0407912
0.8300000,0.8300000,0.8300000,-0.0393137
0.8350000,0.8350000,0.8350000,-0.0378983
0.8400000,0.8400000,0.8400000,-0.0365420
0.8450000,0.8450000,0.8450000,-0.0352420
0.8500000,0.8500000,0.8500000,-0.0339957
0.8550000,0.8550000,0.8550000,-0.0328006
0.8600000,0.8600000,0.8600000,-0.0316543
0.8650000,0.8650000,0.8650000,-0.0305545
0.8700000,0.8700000,0.8700000,-0.0294990
0.8750000,0.8750000,0.8750000,-0.0284859
0.8800000,0.8800000,0.8800000,-0.0275132
0.8850000,0.8850000,0.8850000,-0.0265790
0.8900000,0.8900000,0.8900000,-0.0256817
0.8950000,0.8950000,0.8950000,-0.0248196
0.9000000,0.9000000,0.9000000,-0.0239911
0.9050000,0.9050000,0.9050000,-0.0231947
0.9100000,0.9100000,0.9100000,-0.0224290
0.9150000,0.9150000,0.9150000,-0.0216927
0.9200000,0.9200000,0.9200000,-0.0209845
0.9250000,0.9250000,0.9250000,-0.0203031
0.9300000,0.9300000,0.9300000,-0.0196475
0.9350000,0.9350000,0.9350000,-0.0190164
0.9400000,0.9400000,0.9400000,-0.0184089
0.9450000,0.9450000,0.9450000,-0.0178240
0.9500000,0.9500000,0.9500000,-0.0172607
0.9550000,0.9550000,0.9550000,-0.0167180
0.9600000,0.9600000,0.9600000,-0.0161952
0.9650000,0.9650000,0.9650000,-0.0156914
0.9700000,0.9700000,0.9700000,-0.0152058
0.9750000,0.9750000,0.9750000,-0.0147376
0.9800000,0.9800000,0.9800000,-0.0142862
0.9850000,0.9850000,0.9850000,-0.0138509
0.9900000,0.9900000,0.9900000,-0.0134310
0.9950000,0.9950000,0.9950000,-0.0130259
1.0000000,1.0000000,1.0000000,-0.0126350
1.0050000,1.0050000,1.0050000,-0.0122578
1.0100000,1.0100000,1.0100000,-0.0118936
1.0150000,1.0150000,1.0150000,-0.0115420
1.0200000,1.0200000,1.0200000,-0.0112025
1.0250000,1.0250000,1.0250000,-0.0108746
1.0300000,1.0300000,1.0300000,-0.0105579
1.0350000,1.0350000,1.0350000,-0.0102519
1.0400000,1.0400000,1.0400000,-0.0099562
1.0450000,1.0450000,1.0450000,-0.0096704
1.0500000,1.0500000,1.0500000,-0.0093942
1.0550000,1.0550000,1.0550000,-0.0091271
1.0600000,1.0600000,1.0600000,-0.0088689
1.0650000,1.0650000,1.0650000,-0.0086191
1.0700000,1.0700000,1.0700000,-0.0083776
1.0750000,1.0750000,1.0750000,-0.0081439
1.0800000,1.0800000,1.0800000,-0.0079178
1.0850000,1.0850000,1.0850000,-0.0076990
1.0900000,1.0900000,1.0900000,-0.0074872
1.0950000,1.0950000,1.0950000,-0.0072822
1.1000000,1.1000000,1.1000000,-0.0070837
1.1050000,1.1050000,1.1050000,-0.0068915
1.1100000,1.1100000,1.1100000,-0.0067054
1.1150000,1.1150000,1.1150000,-0.0065251
1.1200000,1.1200000,1.1200000,-0.0063505
1.1250000,1.1250000,1.1250000,-0.0061813
1.1300000,1.1300000,1.1300000,-0.0060173
1.1350000,1.1350000,1.1350000,-0.0058584
1.1400000,1.1400000,1.1400000,-0.0057044
1.1450000,1.1450000,1.1450000,-0.0055551
1.1500000,1.1500000,1.1500000,-0.0054103
1.1550000,1.1550000,1.1550000,-0.0052700
1.1600000,1.1600000,1.1600000,-0.0051338
1.1650000,1.1650000,1.1650000,-0.0050018
1.1700000,1.1700000,1.1700000,-0.0048737
1.1750000,1.1750000,1.1750000,-0.0047494
1.1800000,1.1800000,1.1800000,-0.0046288
1.1850000,1.1850000,1.1850000,-0.0045118
1.1900000,1.1900000,1.1900000,-0.0043982
1.1950000,1.1950000,1.1950000,-0.0042879
1.2000000,1.2000000,1.2000000,-0.0041809
1.2050000,1.2050000,1.2050000,-0.0040769
1.2100000,1.2100000,1.2100000,-0.0039760
1.2150000,1.2150000,1.2150000,-0.0038779
1.2200000,1.2200000,1.2200000,-0.0037827
1.2250000,1.2250000,1.2250000,-0.0036902
1.2300000,1.2300000,1.2300000,-0.0036004
1.2350000,1.2350000,1.2350000,-0.0035130
1.2400000,1.2400000,1.2400000,-0.0034282
1.2450000,1.2450000,1.2450000,-0.0033457
1.2500000,1.2500000,1.2500000,-0.0032656
1.2550000,1.2550000,1.2550000,-0.0031876
1.2600000,1.2600000,1.2600000,-0.0031119
1.2650000,1.2650000,1.2650000,-0.0030382
1.2700000,1.2700000,1.2700000,-0.0029666
1.2750000,1.2750000,1.2750000,-0.0028969
1.2800000,1.2800000,1.2800000,-0.0028291
1.2850000,1.2850000,1.2850000,-0.0027632
1.2900000,1.2900000,1.2900000,-0.0026990
1.2950000,1.2950000,1.2950000,-0.0026366
1.3000000,1.3000000,1.3000000,-0.0025759
1.3050000,1.3050000,1.3050000,-0.0025168
1.3100000,1.3100000,1.3100000,-0.0024593
1.3150000,1.3150000,1.3150000,-0.0024033
1.3200000,1.3200000,1.3200000,-0.0023488
1.3250000,1.3250000,1.3250000,-0.0022957
1.3300000,1.3300000,1.3300000,-0.0022440
1.3350000,1.3350000,1.3350000,-0.0021937
1.3400000,1.3400000,1.3400000,-0.0021447
1.3450000,1.3450000,1.3450000,-0.0020969
1.3500000,1.3500000,1.3500000,-0.0020504
1.3550000,1.3550000,1.3550000,-0.0020051
1.3600000,1.3600000,1.3600000,-0.0019610
1.3650000,1.3650000,1.3650000,-0.0019180
1.3700000,1.3700000,1.3700000,-0.0018761
1.3750000,1.3750000,1.3750000,-0.0018353
1.3800000,1.3800000,1.3800000,-0.0017954
1.3850000,1.3850000,1.3850000,-0.0017566
1.3900000,1.3900000,1.3900000,-0.0017188
1.3950000,1.3950000,1.3950000,-0.0016819
1.4000000,1.4000000,1.4000000,-0.0016460
1.4050000,1.4050000,1.4050000,-0.0016109
1.4100000,1.4100000,1.4100000,-0.0015767
1.4150000,1.4150000,1.4150000,-0.0015434
1.4200000,1.4200000,1.4200000,-0.0015108
1.4250000,1.4250000,1.4250000,-0.0014791
1.4300000,1.4300000,1.4300000,-0.0014482
1.4350000,1.4350000,1.4350000,-0.0014179
1.4400000,1.4400000,1.4400000,-0.0013885
1.4450000,1.4450000,1.4450000,-0.0013597
1.4500000,1.4500000,1.4500000,-0.0013317
1.4550000,1.4550000,1.4550000,-0.0013043
1.4600000,1.4600000,1.4600000,-0.0012775
1.4650000,1.4650000,1.4650000,-0.0012514
1.4700000,1.4700000,1.4700000,-0.0012260
1.4750000,1.4750000,1.4750000,-0.0012011
1.4800000,1.4800000,1.4800000,-0.0011768
1.4850000,1.4850000,1.4850000,-0.0011531
1.4900000,1.4900000,1.4900000,-0.0011299
1.4950000,1.4950000,1.4950000,-0.0011073
1.5000000,1.5000000,1.5000000,-0.0010852
1.5050000,1.5050000,1.5050000,-0.0010637
1.5100000,1.5100000,1.5100000,-0.0010426
1.5150000,1.5150000,1.5150000,-0.0010220
1.5200000,1.5200000,1.5200000,-0.0010019
1.5250000,1.5250000,1.5250000,-0.0009822
1.5300000,1.5300000,1.5300000,-0.0009630
1.5350000,1.5350000,1.5350000,-0.0009442
1.5400000,1.5400000,1.5400000,-0.0009259
1.5450000,1.5450000,1.5450000,-0.0009080
1.5500000,1.5500000,1.5500000,-0.0008904
1.5550000,1.5550000,1.5550000,-0.0008733
1.5600000,1.5600000,1.5600000,-0.0008565
1.5650000,1.5650000,1.5650000,-0.0008402
1.5700000,1.5700000,1.5700000,-0.0008242
1.5750000,1.5750000,1.5750000,-0.0008085
1.5800000,1.5800000,1.5800000,-0.0007932
1.5850000,1.5850000,1.5850000,-0.0007782
1.5900000,1.5900000,1.5900000,-0.0007636
1.5950000,1.5950000,1.5950000,-0.0007493
