# r[nm],d[nm],daligned[nm],Umethane(d)[kj/mol]
0.0000000,0.0000000,0.0000000,179863111.2426169
0.0050000,0.0050000,0.0050000,82788069.2388833
0.0100000,0.0100000,0.0100000,41024543.2149026
0.0150000,0.0150000,0.0150000,22079247.9676012
0.0200000,0.0200000,0.0200000,13034085.8909871
0.0250000,0.0250000,0.0250000,8490234.4118473
0.0300000,0.0300000,0.0300000,5991480.7881680
0.0350000,0.0350000,0.0350000,4655119.7225698
0.0400000,0.0400000,0.0400000,3789735.7479468
0.0450000,0.0450000,0.0450000,3045288.0619114
0.0500000,0.0500000,0.0500000,2614053.3887029
0.0550000,0.0550000,0.0550000,2020793.0321260
0.0600000,0.0600000,0.0600000,1509571.7949280
0.0650000,0.0650000,0.0650000,1153666.1570865
0.0700000,0.0700000,0.0700000,900361.0808982
0.0750000,0.0750000,0.0750000,716028.3951483
0.0800000,0.0800000,0.0800000,578824.1167016
0.0850000,0.0850000,0.0850000,474321.8815280
0.0900000,0.0900000,0.0900000,392867.2807620
0.0950000,0.0950000,0.0950000,281334.3318537
0.1000000,0.1000000,0.1000000,200721.6284839
0.1050000,0.1050000,0.1050000,144381.9793681
0.1100000,0.1100000,0.1100000,104670.3832587
0.1150000,0.1150000,0.1150000,76445.8972011
0.1200000,0.1200000,0.1200000,56224.2674028
0.1250000,0.1250000,0.1250000,41624.6790857
0.1300000,0.1300000,0.1300000,31006.7515106
0.1350000,0.1350000,0.1350000,23230.8844088
0.1400000,0.1400000,0.1400000,17498.9258535
0.1450000,0.1450000,0.1450000,13247.4377660
0.1500000,0.1500000,0.1500000,10075.6319471
0.1550000,0.1550000,0.1550000,7696.3250954
0.1600000,0.1600000,0.1600000,5902.2933323
0.1650000,0.1650000,0.1650000,4543.0092421
0.1700000,0.1700000,0.1700000,3508.4338224
0.1750000,0.1750000,0.1750000,2717.6395387
0.1800000,0.1800000,0.1800000,2110.7669369
0.1850000,0.1850000,0.1850000,1655.1847570
0.1900000,0.1900000,0.1900000,1293.8419685
0.1950000,0.1950000,0.1950000,1013.6252170
0.2000000,0.2000000,0.2000000,795.6670123
0.2050000,0.2050000,0.2050000,625.6647632
0.2100000,0.2100000,0.2100000,492.7307394
0.2150000,0.2150000,0.2150000,388.5436270
0.2200000,0.2200000,0.2200000,306.7194167
0.2250000,0.2250000,0.2250000,242.3426755
0.2300000,0.2300000,0.2300000,191.6157036
0.2350000,0.2350000,0.2350000,151.5947731
0.2400000,0.2400000,0.2400000,119.9909954
0.2450000,0.2450000,0.2450000,95.0192354
0.2500000,0.2500000,0.2500000,75.2819083
0.2550000,0.2550000,0.2550000,59.6763288
0.2600000,0.2600000,0.2600000,47.3208388
0.2650000,0.2650000,0.2650000,37.5057862
0.2700000,0.2700000,0.2700000,29.6716736
0.2750000,0.2750000,0.2750000,23.3964912
0.2800000,0.2800000,0.2800000,18.3699746
0.2850000,0.2850000,0.2850000,14.3566058
0.2900000,0.2900000,0.2900000,11.1651062
0.2950000,0.2950000,0.2950000,8.6327965
0.3000000,0.3000000,0.3000000,6.6212952
0.3050000,0.3050000,0.3050000,5.0169684
0.3100000,0.3100000,0.3100000,3.7305154
0.3150000,0.3150000,0.3150000,2.6932213
0.3200000,0.3200000,0.3200000,1.8516760
0.3250000,0.3250000,0.3250000,1.1639215
0.3300000,0.3300000,0.3300000,0.5975332
0.3350000,0.3350000,0.3350000,0.1281255
0.3400000,0.3400000,0.3400000,-0.2627319
0.3450000,0.3450000,0.3450000,-0.5895727
0.3500000,0.3500000,0.3500000,-0.8640525
0.3550000,0.3550000,0.3550000,-1.0951683
0.3600000,0.3600000,0.3600000,-1.2897956
0.3650000,0.3650000,0.3650000,-1.4538321
0.3700000,0.3700000,0.3700000,-1.5930850
0.3750000,0.3750000,0.3750000,-1.7133528
0.3800000,0.3800000,0.3800000,-1.8201475
0.3850000,0.3850000,0.3850000,-1.9182652
0.3900000,0.3900000,0.3900000,-2.0108180
0.3950000,0.3950000,0.3950000,-2.0982799
0.4000000,0.4000000,0.4000000,-2.1789311
0.4050000,0.4050000,0.4050000,-2.2505998
0.4100000,0.4100000,0.4100000,-2.3120676
0.4150000,0.4150000,0.4150000,-2.3633906
0.4200000,0.4200000,0.4200000,-2.4054712
0.4250000,0.4250000,0.4250000,-2.4393255
0.4300000,0.4300000,0.4300000,-2.4656995
0.4350000,0.4350000,0.4350000,-2.4851700
0.4400000,0.4400000,0.4400000,-2.4982323
0.4450000,0.4450000,0.4450000,-2.5052080
0.4500000,0.4500000,0.4500000,-2.5060661
0.4550000,0.4550000,0.4550000,-2.5002066
0.4600000,0.4600000,0.4600000,-2.4863226
0.4650000,0.4650000,0.4650000,-2.4626841
0.4700000,0.4700000,0.4700000,-2.4278314
0.4750000,0.4750000,0.4750000,-2.3812044
0.4800000,0.4800000,0.4800000,-2.3234082
0.4850000,0.4850000,0.4850000,-2.2561200
0.4900000,0.4900000,0.4900000,-2.1817639
0.4950000,0.4950000,0.4950000,-2.1031369
0.5000000,0.5000000,0.5000000,-2.0231258
0.5050000,0.5050000,0.5050000,-1.9446069
0.5100000,0.5100000,0.5100000,-1.8704818
0.5150000,0.5150000,0.5150000,-1.8034392
0.5200000,0.5200000,0.5200000,-1.7451466
0.5250000,0.5250000,0.5250000,-1.6953862
0.5300000,0.5300000,0.5300000,-1.6519954
0.5350000,0.5350000,0.5350000,-1.6117428
0.5400000,0.5400000,0.5400000,-1.5714882
0.5450000,0.5450000,0.5450000,-1.5289756
0.5500000,0.5500000,0.5500000,-1.4830701
0.5550000,0.5550000,0.5550000,-1.4336000
0.5600000,0.5600000,0.5600000,-1.3810425
0.5650000,0.5650000,0.5650000,-1.3262147
0.5700000,0.5700000,0.5700000,-1.2700412
0.5750000,0.5750000,0.5750000,-1.2134080
0.5800000,0.5800000,0.5800000,-1.1570855
0.5850000,0.5850000,0.5850000,-1.1016988
0.5900000,0.5900000,0.5900000,-1.0477276
0.5950000,0.5950000,0.5950000,-0.9955198
0.6000000,0.6000000,0.6000000,-0.9453116
0.6050000,0.6050000,0.6050000,-0.8972488
0.6100000,0.6100000,0.6100000,-0.8514063
0.6150000,0.6150000,0.6150000,-0.8078053
0.6200000,0.6200000,0.6200000,-0.7664268
0.6250000,0.6250000,0.6250000,-0.7272232
0.6300000,0.6300000,0.6300000,-0.6901270
0.6350000,0.6350000,0.6350000,-0.6550575
0.6400000,0.6400000,0.6400000,-0.6219257
0.6450000,0.6450000,0.6450000,-0.5906386
0.6500000,0.6500000,0.6500000,-0.5611015
0.6550000,0.6550000,0.6550000,-0.5332201
0.6600000,0.6600000,0.6600000,-0.5069023
0.6650000,0.6650000,0.6650000,-0.4820586
0.6700000,0.6700000,0.6700000,-0.4586031
0.6750000,0.6750000,0.6750000,-0.4364539
0.6800000,0.6800000,0.6800000,-0.4155331
0.6850000,0.6850000,0.6850000,-0.3957670
0.6900000,0.6900000,0.6900000,-0.3770860
0.6950000,0.6950000,0.6950000,-0.3594247
0.7000000,0.7000000,0.7000000,-0.3427216
0.7050000,0.7050000,0.7050000,-0.3269188
0.7100000,0.7100000,0.7100000,-0.3119623
0.7150000,0.7150000,0.7150000,-0.2978012
0.7200000,0.7200000,0.7200000,-0.2843881
0.7250000,0.7250000,0.7250000,-0.2716786
0.7300000,0.7300000,0.7300000,-0.2596308
0.7350000,0.7350000,0.7350000,-0.2482060
0.7400000,0.7400000,0.7400000,-0.2373676
0.7450000,0.7450000,0.7450000,-0.2270815
0.7500000,0.7500000,0.7500000,-0.2173157
0.7550000,0.7550000,0.7550000,-0.2080403
0.7600000,0.7600000,0.7600000,-0.1992274
0.7650000,0.7650000,0.7650000,-0.1908506
0.7700000,0.7700000,0.7700000,-0.1828854
0.7750000,0.7750000,0.7750000,-0.1753088
0.7800000,0.7800000,0.7800000,-0.1680990
0.7850000,0.7850000,0.7850000,-0.1612359
0.7900000,0.7900000,0.7900000,-0.1547004
0.7950000,0.7950000,0.7950000,-0.1484746
0.8000000,0.8000000,0.8000000,-0.1425419
0.8050000,0.8050000,0.8050000,-0.1368864
0.8100000,0.8100000,0.8100000,-0.1314933
0.8150000,0.8150000,0.8150000,-0.1263487
0.8200000,0.8200000,0.8200000,-0.1214395
0.8250000,0.8250000,0.8250000,-0.1167535
0.8300000,0.8300000,0.8300000,-0.1122789
0.8350000,0.8350000,0.8350000,-0.1080049
0.8400000,0.8400000,0.8400000,-0.1039213
0.8450000,0.8450000,0.8450000,-0.1000182
0.8500000,0.8500000,0.8500000,-0.0962866
0.8550000,0.8550000,0.8550000,-0.0927178
0.8600000,0.8600000,0.8600000,-0.0893038
0.8650000,0.8650000,0.8650000,-0.0860368
0.8700000,0.8700000,0.8700000,-0.0829096
0.8750000,0.8750000,0.8750000,-0.0799153
0.8800000,0.8800000,0.8800000,-0.0770475
0.8850000,0.8850000,0.8850000,-0.0743001
0.8900000,0.8900000,0.8900000,-0.0716673
0.8950000,0.8950000,0.8950000,-0.0691436
0.9000000,0.9000000,0.9000000,-0.0667238
0.9050000,0.9050000,0.9050000,-0.0644030
0.9100000,0.9100000,0.9100000,-0.0621766
0.9150000,0.9150000,0.9150000,-0.0600403
0.9200000,0.9200000,0.9200000,-0.0579898
0.9250000,0.9250000,0.9250000,-0.0560211
0.9300000,0.9300000,0.9300000,-0.0541306
0.9350000,0.9350000,0.9350000,-0.0523148
0.9400000,0.9400000,0.9400000,-0.0505701
0.9450000,0.9450000,0.9450000,-0.0488935
0.9500000,0.9500000,0.9500000,-0.0472818
0.9550000,0.9550000,0.9550000,-0.0457323
0.9600000,0.9600000,0.9600000,-0.0442421
0.9650000,0.9650000,0.9650000,-0.0428087
0.9700000,0.9700000,0.9700000,-0.0414296
0.9750000,0.9750000,0.9750000,-0.0401024
0.9800000,0.9800000,0.9800000,-0.0388249
0.9850000,0.9850000,0.9850000,-0.0375950
0.9900000,0.9900000,0.9900000,-0.0364106
0.9950000,0.9950000,0.9950000,-0.0352699
1.0000000,1.0000000,1.0000000,-0.0341709
1.0050000,1.0050000,1.0050000,-0.0331119
1.0100000,1.0100000,1.0100000,-0.0320913
1.0150000,1.0150000,1.0150000,-0.0311074
1.0200000,1.0200000,1.0200000,-0.0301588
1.0250000,1.0250000,1.0250000,-0.0292440
1.0300000,1.0300000,1.0300000,-0.0283617
1.0350000,1.0350000,1.0350000,-0.0275104
1.0400000,1.0400000,1.0400000,-0.0266890
1.0450000,1.0450000,1.0450000,-0.0258962
1.0500000,1.0500000,1.0500000,-0.0251310
1.0550000,1.0550000,1.0550000,-0.0243922
1.0600000,1.0600000,1.0600000,-0.0236787
1.0650000,1.0650000,1.0650000,-0.0229897
1.0700000,1.0700000,1.0700000,-0.0223240
1.0750000,1.0750000,1.0750000,-0.0216809
1.0800000,1.0800000,1.0800000,-0.0210594
1.0850000,1.0850000,1.0850000,-0.0204588
1.0900000,1.0900000,1.0900000,-0.0198781
1.0950000,1.0950000,1.0950000,-0.0193167
1.1000000,1.1000000,1.1000000,-0.0187738
1.1050000,1.1050000,1.1050000,-0.0182488
1.1100000,1.1100000,1.1100000,-0.0177409
1.1150000,1.1150000,1.1150000,-0.0172494
1.1200000,1.1200000,1.1200000,-0.0167739
1.1250000,1.1250000,1.1250000,-0.0163137
1.1300000,1.1300000,1.1300000,-0.0158683
1.1350000,1.1350000,1.1350000,-0.0154371
1.1400000,1.1400000,1.1400000,-0.0150195
1.1450000,1.1450000,1.1450000,-0.0146151
1.1500000,1.1500000,1.1500000,-0.0142235
1.1550000,1.1550000,1.1550000,-0.0138441
1.1600000,1.1600000,1.1600000,-0.0134765
1.1650000,1.1650000,1.1650000,-0.0131203
1.1700000,1.1700000,1.1700000,-0.0127751
1.1750000,1.1750000,1.1750000,-0.0124405
1.1800000,1.1800000,1.1800000,-0.0121162
1.1850000,1.1850000,1.1850000,-0.0118017
1.1900000,1.1900000,1.1900000,-0.0114967
1.1950000,1.1950000,1.1950000,-0.0112010
1.2000000,1.2000000,1.2000000,-0.0109141
1.2050000,1.2050000,1.2050000,-0.0106358
1.2100000,1.2100000,1.2100000,-0.0103658
1.2150000,1.2150000,1.2150000,-0.0101038
1.2200000,1.2200000,1.2200000,-0.0098495
1.2250000,1.2250000,1.2250000,-0.0096027
1.2300000,1.2300000,1.2300000,-0.0093631
1.2350000,1.2350000,1.2350000,-0.0091305
1.2400000,1.2400000,1.2400000,-0.0089046
1.2450000,1.2450000,1.2450000,-0.0086853
1.2500000,1.2500000,1.2500000,-0.0084723
1.2550000,1.2550000,1.2550000,-0.0082653
1.2600000,1.2600000,1.2600000,-0.0080643
1.2650000,1.2650000,1.2650000,-0.0078689
1.2700000,1.2700000,1.2700000,-0.0076791
1.2750000,1.2750000,1.2750000,-0.0074947
1.2800000,1.2800000,1.2800000,-0.0073154
1.2850000,1.2850000,1.2850000,-0.0071411
1.2900000,1.2900000,1.2900000,-0.0069717
1.2950000,1.2950000,1.2950000,-0.0068069
1.3000000,1.3000000,1.3000000,-0.0066467
1.3050000,1.3050000,1.3050000,-0.0064909
1.3100000,1.3100000,1.3100000,-0.0063394
1.3150000,1.3150000,1.3150000,-0.0061919
1.3200000,1.3200000,1.3200000,-0.0060485
1.3250000,1.3250000,1.3250000,-0.0059090
1.3300000,1.3300000,1.3300000,-0.0057732
1.3350000,1.3350000,1.3350000,-0.0056411
1.3400000,1.3400000,1.3400000,-0.0055125
1.3450000,1.3450000,1.3450000,-0.0053873
1.3500000,1.3500000,1.3500000,-0.0052654
1.3550000,1.3550000,1.3550000,-0.0051467
1.3600000,1.3600000,1.3600000,-0.0050312
1.3650000,1.3650000,1.3650000,-0.0049187
1.3700000,1.3700000,1.3700000,-0.0048091
1.3750000,1.3750000,1.3750000,-0.0047024
1.3800000,1.3800000,1.3800000,-0.0045984
1.3850000,1.3850000,1.3850000,-0.0044971
1.3900000,1.3900000,1.3900000,-0.0043985
1.3950000,1.3950000,1.3950000,-0.0043023
1.4000000,1.4000000,1.4000000,-0.0042086
1.4050000,1.4050000,1.4050000,-0.0041173
1.4100000,1.4100000,1.4100000,-0.0040283
1.4150000,1.4150000,1.4150000,-0.0039415
1.4200000,1.4200000,1.4200000,-0.0038569
1.4250000,1.4250000,1.4250000,-0.0037745
1.4300000,1.4300000,1.4300000,-0.0036941
1.4350000,1.4350000,1.4350000,-0.0036157
1.4400000,1.4400000,1.4400000,-0.0035392
1.4450000,1.4450000,1.4450000,-0.0034646
1.4500000,1.4500000,1.4500000,-0.0033919
1.4550000,1.4550000,1.4550000,-0.0033209
1.4600000,1.4600000,1.4600000,-0.0032517
1.4650000,1.4650000,1.4650000,-0.0031841
1.4700000,1.4700000,1.4700000,-0.0031182
1.4750000,1.4750000,1.4750000,-0.0030539
1.4800000,1.4800000,1.4800000,-0.0029911
1.4850000,1.4850000,1.4850000,-0.0029298
1.4900000,1.4900000,1.4900000,-0.0028700
1.4950000,1.4950000,1.4950000,-0.0028116
1.5000000,1.5000000,1.5000000,-0.0027546
1.5050000,1.5050000,1.5050000,-0.0026990
1.5100000,1.5100000,1.5100000,-0.0026447
1.5150000,1.5150000,1.5150000,-0.0025916
1.5200000,1.5200000,1.5200000,-0.0025398
1.5250000,1.5250000,1.5250000,-0.0024892
1.5300000,1.5300000,1.5300000,-0.0024397
1.5350000,1.5350000,1.5350000,-0.0023914
1.5400000,1.5400000,1.5400000,-0.0023443
1.5450000,1.5450000,1.5450000,-0.0022982
1.5500000,1.5500000,1.5500000,-0.0022531
1.5550000,1.5550000,1.5550000,-0.0022091
1.5600000,1.5600000,1.5600000,-0.0021661
1.5650000,1.5650000,1.5650000,-0.0021241
1.5700000,1.5700000,1.5700000,-0.0020830
1.5750000,1.5750000,1.5750000,-0.0020429
1.5800000,1.5800000,1.5800000,-0.0020036
1.5850000,1.5850000,1.5850000,-0.0019653
1.5900000,1.5900000,1.5900000,-0.0019278
1.5950000,1.5950000,1.5950000,-0.0018911
