# r[nm],d[nm],daligned[nm],Uwater(d)[kj/mol]
0.0000000,0.0000000,0.0000000,5620887.0619897
0.0050000,0.0050000,0.0050000,3837525.8293197
0.0100000,0.0100000,0.0100000,2615187.1483022
0.0150000,0.0150000,0.0150000,1784080.8779520
0.0200000,0.0200000,0.0200000,1222017.1702056
0.0250000,0.0250000,0.0250000,843131.6145006
0.0300000,0.0300000,0.0300000,588112.3374217
0.0350000,0.0350000,0.0350000,416481.0327719
0.0400000,0.0400000,0.0400000,300838.1680122
0.0450000,0.0450000,0.0450000,222734.7237160
0.0500000,0.0500000,0.0500000,169788.4790690
0.0550000,0.0550000,0.0550000,133706.5311671
0.0600000,0.0600000,0.0600000,108946.1042715
0.0650000,0.0650000,0.0650000,91814.5763633
0.0700000,0.0700000,0.0700000,79866.7009797
0.0750000,0.0750000,0.0750000,71500.4283537
0.0800000,0.0800000,0.0800000,65684.1628491
0.0850000,0.0850000,0.0850000,60366.0826333
0.0900000,0.0900000,0.0900000,51353.1313927
0.0950000,0.0950000,0.0950000,43140.2335792
0.1000000,0.1000000,0.1000000,34970.9546791
0.1050000,0.1050000,0.1050000,28649.8342195
0.1100000,0.1100000,0.1100000,23707.8224168
0.1150000,0.1150000,0.1150000,19800.8099072
0.1200000,0.1200000,0.1200000,16675.5757689
0.1250000,0.1250000,0.1250000,14145.0654928
0.1300000,0.1300000,0.1300000,12070.5637421
0.1350000,0.1350000,0.1350000,10348.8655849
0.1400000,0.1400000,0.1400000,8838.9370215
0.1450000,0.1450000,0.1450000,7317.6154502
0.1500000,0.1500000,0.1500000,6079.1695616
0.1550000,0.1550000,0.1550000,5063.0670068
0.1600000,0.1600000,0.1600000,4223.7325627
0.1650000,0.1650000,0.1650000,3526.5481152
0.1700000,0.1700000,0.1700000,2944.9330468
0.1750000,0.1750000,0.1750000,2458.2198275
0.1800000,0.1800000,0.1800000,2050.1135785
0.1850000,0.1850000,0.1850000,1719.9746845
0.1900000,0.1900000,0.1900000,1432.4339361
0.1950000,0.1950000,0.1950000,1191.1895961
0.2000000,0.2000000,0.2000000,989.0084925
0.2050000,0.2050000,0.2050000,819.8200036
0.2100000,0.2100000,0.2100000,678.4947328
0.2150000,0.2150000,0.2150000,560.6792651
0.2200000,0.2200000,0.2200000,462.6698723
0.2250000,0.2250000,0.2250000,381.3133091
0.2300000,0.2300000,0.2300000,313.9266316
0.2350000,0.2350000,0.2350000,258.2300954
0.2400000,0.2400000,0.2400000,212.2840306
0.2450000,0.2450000,0.2450000,174.4169670
0.2500000,0.2500000,0.2500000,143.1782211
0.2550000,0.2550000,0.2550000,117.3795956
0.2600000,0.2600000,0.2600000,96.1250336
0.2650000,0.2650000,0.2650000,78.7117958
0.2700000,0.2700000,0.2700000,64.5269306
0.2750000,0.2750000,0.2750000,53.0207869
0.2800000,0.2800000,0.2800000,43.7123388
0.2850000,0.2850000,0.2850000,36.1917821
0.2900000,0.2900000,0.2900000,30.1160577
0.2950000,0.2950000,0.2950000,25.2009296
0.3000000,0.3000000,0.3000000,21.2135145
0.3050000,0.3050000,0.3050000,17.9666254
0.3100000,0.3100000,0.3100000,15.3125239
0.3150000,0.3150000,0.3150000,13.1321317
0.3200000,0.3200000,0.3200000,11.3182539
0.3250000,0.3250000,0.3250000,9.7632866
0.3300000,0.3300000,0.3300000,8.3720467
0.3350000,0.3350000,0.3350000,7.0934934
0.3400000,0.3400000,0.3400000,5.9279906
0.3450000,0.3450000,0.3450000,4.8974516
0.3500000,0.3500000,0.3500000,4.0148795
0.3550000,0.3550000,0.3550000,3.2753228
0.3600000,0.3600000,0.3600000,2.6607312
0.3650000,0.3650000,0.3650000,2.1477797
0.3700000,0.3700000,0.3700000,1.7136615
0.3750000,0.3750000,0.3750000,1.3384235
0.3800000,0.3800000,0.3800000,1.0053459
0.3850000,0.3850000,0.3850000,0.7021358
0.3900000,0.3900000,0.3900000,0.4225716
0.3950000,0.3950000,0.3950000,0.1658537
0.4000000,0.4000000,0.4000000,-0.0663457
0.4050000,0.4050000,0.4050000,-0.2724679
0.4100000,0.4100000,0.4100000,-0.4519804
0.4150000,0.4150000,0.4150000,-0.6054280
0.4200000,0.4200000,0.4200000,-0.7343701
0.4250000,0.4250000,0.4250000,-0.8411081
0.4300000,0.4300000,0.4300000,-0.9281933
0.4350000,0.4350000,0.4350000,-0.9980011
0.4400000,0.4400000,0.4400000,-1.0525299
0.4450000,0.4450000,0.4450000,-1.0934178
0.4500000,0.4500000,0.4500000,-1.1220875
0.4550000,0.4550000,0.4550000,-1.1399124
0.4600000,0.4600000,0.4600000,-1.1483163
0.4650000,0.4650000,0.4650000,-1.1487534
0.4700000,0.4700000,0.4700000,-1.1426010
0.4750000,0.4750000,0.4750000,-1.1310603
0.4800000,0.4800000,0.4800000,-1.1151332
0.4850000,0.4850000,0.4850000,-1.0956510
0.4900000,0.4900000,0.4900000,-1.0732696
0.4950000,0.4950000,0.4950000,-1.0484250
0.5000000,0.5000000,0.5000000,-1.0213382
0.5050000,0.5050000,0.5050000,-0.9921151
0.5100000,0.5100000,0.5100000,-0.9608807
0.5150000,0.5150000,0.5150000,-0.9278643
0.5200000,0.5200000,0.5200000,-0.8934137
0.5250000,0.5250000,0.5250000,-0.8579578
0.5300000,0.5300000,0.5300000,-0.8219539
0.5350000,0.5350000,0.5350000,-0.7858411
0.5400000,0.5400000,0.5400000,-0.7500089
0.5450000,0.5450000,0.5450000,-0.7147830
0.5500000,0.5500000,0.5500000,-0.6804209
0.5550000,0.5550000,0.5550000,-0.6471162
0.5600000,0.5600000,0.5600000,-0.6150065
0.5650000,0.5650000,0.5650000,-0.5841816
0.5700000,0.5700000,0.5700000,-0.5546932
0.5750000,0.5750000,0.5750000,-0.5265628
0.5800000,0.5800000,0.5800000,-0.4997884
0.5850000,0.5850000,0.5850000,-0.4743508
0.5900000,0.5900000,0.5900000,-0.4502177
0.5950000,0.5950000,0.5950000,-0.4273481
0.6000000,0.6000000,0.6000000,-0.4056946
0.6050000,0.6050000,0.6050000,-0.3852063
0.6100000,0.6100000,0.6100000,-0.3658298
0.6150000,0.6150000,0.6150000,-0.3475113
0.6200000,0.6200000,0.6200000,-0.3301969
0.6250000,0.6250000,0.6250000,-0.3138337
0.6300000,0.6300000,0.6300000,-0.2983701
0.6350000,0.6350000,0.6350000,-0.2837565
0.6400000,0.6400000,0.6400000,-0.2699450
0.6450000,0.6450000,0.6450000,-0.2568899
0.6500000,0.6500000,0.6500000,-0.2445478
0.6550000,0.6550000,0.6550000,-0.2328774
0.6600000,0.6600000,0.6600000,-0.2218395
0.6650000,0.6650000,0.6650000,-0.2113974
0.6700000,0.6700000,0.6700000,-0.2015162
0.6750000,0.6750000,0.6750000,-0.1921630
0.6800000,0.6800000,0.6800000,-0.1833071
0.6850000,0.6850000,0.6850000,-0.1749193
0.6900000,0.6900000,0.6900000,-0.1669724
0.6950000,0.6950000,0.6950000,-0.1594407
0.7000000,0.7000000,0.7000000,-0.1523002
0.7050000,0.7050000,0.7050000,-0.1455283
0.7100000,0.7100000,0.7100000,-0.1391039
0.7150000,0.7150000,0.7150000,-0.1330069
0.7200000,0.7200000,0.7200000,-0.1272187
0.7250000,0.7250000,0.7250000,-0.1217218
0.7300000,0.7300000,0.7300000,-0.1164997
0.7350000,0.7350000,0.7350000,-0.1115370
0.7400000,0.7400000,0.7400000,-0.1068193
0.7450000,0.7450000,0.7450000,-0.1023328
0.7500000,0.7500000,0.7500000,-0.0980648
0.7550000,0.7550000,0.7550000,-0.0940033
0.7600000,0.7600000,0.7600000,-0.0901370
0.7650000,0.7650000,0.7650000,-0.0864553
0.7700000,0.7700000,0.7700000,-0.0829483
0.7750000,0.7750000,0.7750000,-0.0796065
0.7800000,0.7800000,0.7800000,-0.0764212
0.7850000,0.7850000,0.7850000,-0.0733840
0.7900000,0.7900000,0.7900000,-0.0704871
0.7950000,0.7950000,0.7950000,-0.0677232
0.8000000,0.8000000,0.8000000,-0.0650853
0.8050000,0.8050000,0.8050000,-0.0625669
0.8100000,0.8100000,0.8100000,-0.0601620
0.8150000,0.8150000,0.8150000,-0.0578646
0.8200000,0.8200000,0.8200000,-0.0556693
0.8250000,0.8250000,0.8250000,-0.0535709
0.8300000,0.8300000,0.8300000,-0.0515646
0.8350000,0.8350000,0.8350000,-0.0496458
0.8400000,0.8400000,0.8400000,-0.0478102
0.8450000,0.8450000,0.8450000,-0.0460535
0.8500000,0.8500000,0.8500000,-0.0443721
0.8550000,0.8550000,0.8550000,-0.0427621
0.8600000,0.8600000,0.8600000,-0.0412202
0.8650000,0.8650000,0.8650000,-0.0397431
0.8700000,0.8700000,0.8700000,-0.0383276
0.8750000,0.8750000,0.8750000,-0.0369709
0.8800000,0.8800000,0.8800000,-0.0356701
0.8850000,0.8850000,0.8850000,-0.0344226
0.8900000,0.8900000,0.8900000,-0.0332260
0.8950000,0.8950000,0.8950000,-0.0320779
0.9000000,0.9000000,0.9000000,-0.0309760
0.9050000,0.9050000,0.9050000,-0.0299182
0.9100000,0.9100000,0.9100000,-0.0289025
0.9150000,0.9150000,0.9150000,-0.0279270
0.9200000,0.9200000,0.9200000,-0.0269898
0.9250000,0.9250000,0.9250000,-0.0260894
0.9300000,0.9300000,0.9300000,-0.0252239
0.9350000,0.9350000,0.9350000,-0.0243919
0.9400000,0.9400000,0.9400000,-0.0235919
0.9450000,0.9450000,0.9450000,-0.0228225
0.9500000,0.9500000,0.9500000,-0.0220824
0.9550000,0.9550000,0.9550000,-0.0213702
0.9600000,0.9600000,0.9600000,-0.0206848
0.9650000,0.9650000,0.9650000,-0.0200250
0.9700000,0.9700000,0.9700000,-0.0193898
0.9750000,0.9750000,0.9750000,-0.0187780
0.9800000,0.9800000,0.9800000,-0.0181888
0.9850000,0.9850000,0.9850000,-0.0176211
0.9900000,0.9900000,0.9900000,-0.0170740
0.9950000,0.9950000,0.9950000,-0.0165468
1.0000000,1.0000000,1.0000000,-0.0160385
1.0050000,1.0050000,1.0050000,-0.0155485
1.0100000,1.0100000,1.0100000,-0.0150759
1.0150000,1.0150000,1.0150000,-0.0146200
1.0200000,1.0200000,1.0200000,-0.0141803
1.0250000,1.0250000,1.0250000,-0.0137559
1.0300000,1.0300000,1.0300000,-0.0133463
1.0350000,1.0350000,1.0350000,-0.0129510
1.0400000,1.0400000,1.0400000,-0.0125693
1.0450000,1.0450000,1.0450000,-0.0122008
1.0500000,1.0500000,1.0500000,-0.0118448
1.0550000,1.0550000,1.0550000,-0.0115009
1.0600000,1.0600000,1.0600000,-0.0111687
1.0650000,1.0650000,1.0650000,-0.0108477
1.0700000,1.0700000,1.0700000,-0.0105374
1.0750000,1.0750000,1.0750000,-0.0102375
1.0800000,1.0800000,1.0800000,-0.0099475
1.0850000,1.0850000,1.0850000,-0.0096671
1.0900000,1.0900000,1.0900000,-0.0093959
1.0950000,1.0950000,1.0950000,-0.0091336
1.1000000,1.1000000,1.1000000,-0.0088798
1.1050000,1.1050000,1.1050000,-0.0086343
1.1100000,1.1100000,1.1100000,-0.0083966
1.1150000,1.1150000,1.1150000,-0.0081666
1.1200000,1.1200000,1.1200000,-0.0079440
1.1250000,1.1250000,1.1250000,-0.0077284
1.1300000,1.1300000,1.1300000,-0.0075196
1.1350000,1.1350000,1.1350000,-0.0073174
1.1400000,1.1400000,1.1400000,-0.0071215
1.1450000,1.1450000,1.1450000,-0.0069318
1.1500000,1.1500000,1.1500000,-0.0067479
1.1550000,1.1550000,1.1550000,-0.0065698
1.1600000,1.1600000,1.1600000,-0.0063971
1.1650000,1.1650000,1.1650000,-0.0062297
1.1700000,1.1700000,1.1700000,-0.0060674
1.1750000,1.1750000,1.1750000,-0.0059101
1.1800000,1.1800000,1.1800000,-0.0057575
1.1850000,1.1850000,1.1850000,-0.0056095
1.1900000,1.1900000,1.1900000,-0.0054659
1.1950000,1.1950000,1.1950000,-0.0053266
1.2000000,1.2000000,1.2000000,-0.0051914
1.2050000,1.2050000,1.2050000,-0.0050603
1.2100000,1.2100000,1.2100000,-0.0049330
1.2150000,1.2150000,1.2150000,-0.0048094
1.2200000,1.2200000,1.2200000,-0.0046895
1.2250000,1.2250000,1.2250000,-0.0045730
1.2300000,1.2300000,1.2300000,-0.0044599
1.2350000,1.2350000,1.2350000,-0.0043501
1.2400000,1.2400000,1.2400000,-0.0042434
1.2450000,1.2450000,1.2450000,-0.0041398
1.2500000,1.2500000,1.2500000,-0.0040391
1.2550000,1.2550000,1.2550000,-0.0039413
1.2600000,1.2600000,1.2600000,-0.0038462
1.2650000,1.2650000,1.2650000,-0.0037538
1.2700000,1.2700000,1.2700000,-0.0036640
1.2750000,1.2750000,1.2750000,-0.0035767
1.2800000,1.2800000,1.2800000,-0.0034919
1.2850000,1.2850000,1.2850000,-0.0034093
1.2900000,1.2900000,1.2900000,-0.0033291
1.2950000,1.2950000,1.2950000,-0.0032510
1.3000000,1.3000000,1.3000000,-0.0031751
1.3050000,1.3050000,1.3050000,-0.0031013
1.3100000,1.3100000,1.3100000,-0.0030294
1.3150000,1.3150000,1.3150000,-0.0029595
1.3200000,1.3200000,1.3200000,-0.0028915
1.3250000,1.3250000,1.3250000,-0.0028253
1.3300000,1.3300000,1.3300000,-0.0027608
1.3350000,1.3350000,1.3350000,-0.0026981
1.3400000,1.3400000,1.3400000,-0.0026370
1.3450000,1.3450000,1.3450000,-0.0025776
1.3500000,1.3500000,1.3500000,-0.0025197
1.3550000,1.3550000,1.3550000,-0.0024633
1.3600000,1.3600000,1.3600000,-0.0024084
1.3650000,1.3650000,1.3650000,-0.0023549
1.3700000,1.3700000,1.3700000,-0.0023028
1.3750000,1.3750000,1.3750000,-0.0022521
1.3800000,1.3800000,1.3800000,-0.0022026
1.3850000,1.3850000,1.3850000,-0.0021544
1.3900000,1.3900000,1.3900000,-0.0021075
1.3950000,1.3950000,1.3950000,-0.0020617
1.4000000,1.4000000,1.4000000,-0.0020171
1.4050000,1.4050000,1.4050000,-0.0019736
1.4100000,1.4100000,1.4100000,-0.0019312
1.4150000,1.4150000,1.4150000,-0.0018899
1.4200000,1.4200000,1.4200000,-0.0018496
1.4250000,1.4250000,1.4250000,-0.0018103
1.4300000,1.4300000,1.4300000,-0.0017720
1.4350000,1.4350000,1.4350000,-0.0017346
1.4400000,1.4400000,1.4400000,-0.0016982
1.4450000,1.4450000,1.4450000,-0.0016626
1.4500000,1.4500000,1.4500000,-0.0016279
1.4550000,1.4550000,1.4550000,-0.0015941
1.4600000,1.4600000,1.4600000,-0.0015610
1.4650000,1.4650000,1.4650000,-0.0015288
1.4700000,1.4700000,1.4700000,-0.0014973
1.4750000,1.4750000,1.4750000,-0.0014666
1.4800000,1.4800000,1.4800000,-0.0014367
1.4850000,1.4850000,1.4850000,-0.0014074
1.4900000,1.4900000,1.4900000,-0.0013788
1.4950000,1.4950000,1.4950000,-0.0013510
1.5000000,1.5000000,1.5000000,-0.0013237
1.5050000,1.5050000,1.5050000,-0.0012971
1.5100000,1.5100000,1.5100000,-0.0012712
1.5150000,1.5150000,1.5150000,-0.0012458
1.5200000,1.5200000,1.5200000,-0.0012210
1.5250000,1.5250000,1.5250000,-0.0011968
1.5300000,1.5300000,1.5300000,-0.0011732
1.5350000,1.5350000,1.5350000,-0.0011501
1.5400000,1.5400000,1.5400000,-0.0011275
1.5450000,1.5450000,1.5450000,-0.0011055
1.5500000,1.5500000,1.5500000,-0.0010839
1.5550000,1.5550000,1.5550000,-0.0010629
1.5600000,1.5600000,1.5600000,-0.0010423
1.5650000,1.5650000,1.5650000,-0.0010222
1.5700000,1.5700000,1.5700000,-0.0010025
1.5750000,1.5750000,1.5750000,-0.0009833
1.5800000,1.5800000,1.5800000,-0.0009645
1.5850000,1.5850000,1.5850000,-0.0009461
1.5900000,1.5900000,1.5900000,-0.0009282
1.5950000,1.5950000,1.5950000,-0.0009106
