# r[nm],d[nm],daligned[nm],Uwater(d)[kj/mol]
0.0000000,0.0000000,0.0000000,1000000000000.0000000
0.0050000,0.0050000,0.0050000,1000000000000.0000000
0.0100000,0.0100000,0.0100000,1000000000000.0000000
0.0150000,0.0150000,0.0150000,1000000000000.0000000
0.0200000,0.0200000,0.0200000,202427696971.1687622
0.0250000,0.0250000,0.0250000,49075979958.3066635
0.0300000,0.0300000,0.0300000,13820791252.6861668
0.0350000,0.0350000,0.0350000,4393600206.1530190
0.0400000,0.0400000,0.0400000,1543711466.5797076
0.0450000,0.0450000,0.0450000,589992183.6139802
0.0500000,0.0500000,0.0500000,242299812.8869797
0.0550000,0.0550000,0.0550000,105930430.9827713
0.0600000,0.0600000,0.0600000,48958181.2241870
0.0650000,0.0650000,0.0650000,23807289.5957430
0.0700000,0.0700000,0.0700000,12150386.3021222
0.0750000,0.0750000,0.0750000,6506794.2494848
0.0800000,0.0800000,0.0800000,3663023.7570350
0.0850000,0.0850000,0.0850000,2146632.6531683
0.0900000,0.0900000,0.0900000,1288128.1882513
0.0950000,0.0950000,0.0950000,798103.1264422
0.1000000,0.1000000,0.1000000,514833.7191773
0.1050000,0.1050000,0.1050000,345408.5312772
0.1100000,0.1100000,0.1100000,240561.1779192
0.1150000,0.1150000,0.1150000,173470.3688861
0.1200000,0.1200000,0.1200000,121366.4882035
0.1250000,0.1250000,0.1250000,85820.5572691
0.1300000,0.1300000,0.1300000,62068.3033761
0.1350000,0.1350000,0.1350000,45803.8896122
0.1400000,0.1400000,0.1400000,33879.0818703
0.1450000,0.1450000,0.1450000,23416.5393991
0.1500000,0.1500000,0.1500000,16414.7158152
0.1550000,0.1550000,0.1550000,11656.9175377
0.1600000,0.1600000,0.1600000,8377.3504922
0.1650000,0.1650000,0.1650000,6086.2688133
0.1700000,0.1700000,0.1700000,4465.6484460
0.1750000,0.1750000,0.1750000,3305.9375661
0.1800000,0.1800000,0.1800000,2467.1190553
0.1850000,0.1850000,0.1850000,1854.3847900
0.1900000,0.1900000,0.1900000,1413.3886496
0.1950000,0.1950000,0.1950000,1077.6779764
0.2000000,0.2000000,0.2000000,826.2505223
0.2050000,0.2050000,0.2050000,636.6392011
0.2100000,0.2100000,0.2100000,492.7445406
0.2150000,0.2150000,0.2150000,382.9177292
0.2200000,0.2200000,0.2200000,298.5050869
0.2250000,0.2250000,0.2250000,232.3639916
0.2300000,0.2300000,0.2300000,180.1083689
0.2350000,0.2350000,0.2350000,139.6395004
0.2400000,0.2400000,0.2400000,108.5492019
0.2450000,0.2450000,0.2450000,84.6517844
0.2500000,0.2500000,0.2500000,66.2384261
0.2550000,0.2550000,0.2550000,52.0130188
0.2600000,0.2600000,0.2600000,40.9965986
0.2650000,0.2650000,0.2650000,32.4486527
0.2700000,0.2700000,0.2700000,25.8074384
0.2750000,0.2750000,0.2750000,20.6453140
0.2800000,0.2800000,0.2800000,16.6351032
0.2850000,0.2850000,0.2850000,13.5240276
0.2900000,0.2900000,0.2900000,11.1123382
0.2950000,0.2950000,0.2950000,9.2358689
0.3000000,0.3000000,0.3000000,7.7551763
0.3050000,0.3050000,0.3050000,6.5546036
0.3100000,0.3100000,0.3100000,5.5487676
0.3150000,0.3150000,0.3150000,4.6863552
0.3200000,0.3200000,0.3200000,3.9433561
0.3250000,0.3250000,0.3250000,3.3094466
0.3300000,0.3300000,0.3300000,2.7765499
0.3350000,0.3350000,0.3350000,2.3331045
0.3400000,0.3400000,0.3400000,1.9616251
0.3450000,0.3450000,0.3450000,1.6378598
0.3500000,0.3500000,0.3500000,1.3343573
0.3550000,0.3550000,0.3550000,1.0302056
0.3600000,0.3600000,0.3600000,0.7203806
0.3650000,0.3650000,0.3650000,0.4155414
0.3700000,0.3700000,0.3700000,0.1327125
0.3750000,0.3750000,0.3750000,-0.1144543
0.3800000,0.3800000,0.3800000,-0.3199997
0.3850000,0.3850000,0.3850000,-0.4851432
0.3900000,0.3900000,0.3900000,-0.6156811
0.3950000,0.3950000,0.3950000,-0.7190059
0.4000000,0.4000000,0.4000000,-0.8016248
0.4050000,0.4050000,0.4050000,-0.8679314
0.4100000,0.4100000,0.4100000,-0.9205337
0.4150000,0.4150000,0.4150000,-0.9614710
0.4200000,0.4200000,0.4200000,-0.9931425
0.4250000,0.4250000,0.4250000,-1.0183162
0.4300000,0.4300000,0.4300000,-1.0395213
0.4350000,0.4350000,0.4350000,-1.0584982
0.4400000,0.4400000,0.4400000,-1.0760743
0.4450000,0.4450000,0.4450000,-1.0923714
0.4500000,0.4500000,0.4500000,-1.1072120
0.4550000,0.4550000,0.4550000,-1.1209430
0.4600000,0.4600000,0.4600000,-1.1355283
0.4650000,0.4650000,0.4650000,-1.1543680
0.4700000,0.4700000,0.4700000,-1.1800331
0.4750000,0.4750000,0.4750000,-1.2120452
0.4800000,0.4800000,0.4800000,-1.2469942
0.4850000,0.4850000,0.4850000,-1.2805076
0.4900000,0.4900000,0.4900000,-1.3090887
0.4950000,0.4950000,0.4950000,-1.3307943
0.5000000,0.5000000,0.5000000,-1.3450026
0.5050000,0.5050000,0.5050000,-1.3518350
0.5100000,0.5100000,0.5100000,-1.3516114
0.5150000,0.5150000,0.5150000,-1.3445528
0.5200000,0.5200000,0.5200000,-1.3308091
0.5250000,0.5250000,0.5250000,-1.3107528
0.5300000,0.5300000,0.5300000,-1.2853184
0.5350000,0.5350000,0.5350000,-1.2560197
0.5400000,0.5400000,0.5400000,-1.2244839
0.5450000,0.5450000,0.5450000,-1.1918496
0.5500000,0.5500000,0.5500000,-1.1585166
0.5550000,0.5550000,0.5550000,-1.1243392
0.5600000,0.5600000,0.5600000,-1.0890020
0.5650000,0.5650000,0.5650000,-1.0523098
0.5700000,0.5700000,0.5700000,-1.0143018
0.5750000,0.5750000,0.5750000,-0.9752315
0.5800000,0.5800000,0.5800000,-0.9354869
0.5850000,0.5850000,0.5850000,-0.8955073
0.5900000,0.5900000,0.5900000,-0.8557193
0.5950000,0.5950000,0.5950000,-0.8164995
0.6000000,0.6000000,0.6000000,-0.7781565
0.6050000,0.6050000,0.6050000,-0.7409285
0.6100000,0.6100000,0.6100000,-0.7049879
0.6150000,0.6150000,0.6150000,-0.6704501
0.6200000,0.6200000,0.6200000,-0.6373840
0.6250000,0.6250000,0.6250000,-0.6058210
0.6300000,0.6300000,0.6300000,-0.5757639
0.6350000,0.6350000,0.6350000,-0.5471938
0.6400000,0.6400000,0.6400000,-0.5200764
0.6450000,0.6450000,0.6450000,-0.4943662
0.6500000,0.6500000,0.6500000,-0.4700105
0.6550000,0.6550000,0.6550000,-0.4469519
0.6600000,0.6600000,0.6600000,-0.4251306
0.6650000,0.6650000,0.6650000,-0.4044858
0.6700000,0.6700000,0.6700000,-0.3849573
0.6750000,0.6750000,0.6750000,-0.3664856
0.6800000,0.6800000,0.6800000,-0.3490130
0.6850000,0.6850000,0.6850000,-0.3324842
0.6900000,0.6900000,0.6900000,-0.3168457
0.6950000,0.6950000,0.6950000,-0.3020468
0.7000000,0.7000000,0.7000000,-0.2880392
0.7050000,0.7050000,0.7050000,-0.2747773
0.7100000,0.7100000,0.7100000,-0.2622179
0.7150000,0.7150000,0.7150000,-0.2503202
0.7200000,0.7200000,0.7200000,-0.2390458
0.7250000,0.7250000,0.7250000,-0.2283585
0.7300000,0.7300000,0.7300000,-0.2182245
0.7350000,0.7350000,0.7350000,-0.2086118
0.7400000,0.7400000,0.7400000,-0.1994903
0.7450000,0.7450000,0.7450000,-0.1908320
0.7500000,0.7500000,0.7500000,-0.1826105
0.7550000,0.7550000,0.7550000,-0.1748009
0.7600000,0.7600000,0.7600000,-0.1673799
0.7650000,0.7650000,0.7650000,-0.1603258
0.7700000,0.7700000,0.7700000,-0.1536179
0.7750000,0.7750000,0.7750000,-0.1472371
0.7800000,0.7800000,0.7800000,-0.1411653
0.7850000,0.7850000,0.7850000,-0.1353855
0.7900000,0.7900000,0.7900000,-0.1298818
0.7950000,0.7950000,0.7950000,-0.1246391
0.8000000,0.8000000,0.8000000,-0.1196434
0.8050000,0.8050000,0.8050000,-0.1148814
0.8100000,0.8100000,0.8100000,-0.1103408
0.8150000,0.8150000,0.8150000,-0.1060097
0.8200000,0.8200000,0.8200000,-0.1018772
0.8250000,0.8250000,0.8250000,-0.0979328
0.8300000,0.8300000,0.8300000,-0.0941669
0.8350000,0.8350000,0.8350000,-0.0905701
0.8400000,0.8400000,0.8400000,-0.0871339
0.8450000,0.8450000,0.8450000,-0.0838500
0.8500000,0.8500000,0.8500000,-0.0807108
0.8550000,0.8550000,0.8550000,-0.0777089
0.8600000,0.8600000,0.8600000,-0.0748375
0.8650000,0.8650000,0.8650000,-0.0720901
0.8700000,0.8700000,0.8700000,-0.0694607
0.8750000,0.8750000,0.8750000,-0.0669433
0.8800000,0.8800000,0.8800000,-0.0645326
0.8850000,0.8850000,0.8850000,-0.0622233
0.8900000,0.8900000,0.8900000,-0.0600107
0.8950000,0.8950000,0.8950000,-0.0578900
0.9000000,0.9000000,0.9000000,-0.0558570
0.9050000,0.9050000,0.9050000,-0.0539074
0.9100000,0.9100000,0.9100000,-0.0520373
0.9150000,0.9150000,0.9150000,-0.0502431
0.9200000,0.9200000,0.9200000,-0.0485213
0.9250000,0.9250000,0.9250000,-0.0468684
0.9300000,0.9300000,0.9300000,-0.0452813
0.9350000,0.9350000,0.9350000,-0.0437571
0.9400000,0.9400000,0.9400000,-0.0422928
0.9450000,0.9450000,0.9450000,-0.0408858
0.9500000,0.9500000,0.9500000,-0.0395336
0.9550000,0.9550000,0.9550000,-0.0382336
0.9600000,0.9600000,0.9600000,-0.0369836
0.9650000,0.9650000,0.9650000,-0.0357813
0.9700000,0.9700000,0.9700000,-0.0346248
0.9750000,0.9750000,0.9750000,-0.0335119
0.9800000,0.9800000,0.9800000,-0.0324409
0.9850000,0.9850000,0.9850000,-0.0314098
0.9900000,0.9900000,0.9900000,-0.0304171
0.9950000,0.9950000,0.9950000,-0.0294610
1.0000000,1.0000000,1.0000000,-0.0285401
1.0050000,1.0050000,1.0050000,-0.0276528
1.0100000,1.0100000,1.0100000,-0.0267977
1.0150000,1.0150000,1.0150000,-0.0259735
1.0200000,1.0200000,1.0200000,-0.0251790
1.0250000,1.0250000,1.0250000,-0.0244129
1.0300000,1.0300000,1.0300000,-0.0236740
1.0350000,1.0350000,1.0350000,-0.0229612
1.0400000,1.0400000,1.0400000,-0.0222735
1.0450000,1.0450000,1.0450000,-0.0216099
1.0500000,1.0500000,1.0500000,-0.0209694
1.0550000,1.0550000,1.0550000,-0.0203511
1.0600000,1.0600000,1.0600000,-0.0197541
1.0650000,1.0650000,1.0650000,-0.0191775
1.0700000,1.0700000,1.0700000,-0.0186206
1.0750000,1.0750000,1.0750000,-0.0180826
1.0800000,1.0800000,1.0800000,-0.0175627
1.0850000,1.0850000,1.0850000,-0.0170604
1.0900000,1.0900000,1.0900000,-0.0165748
1.0950000,1.0950000,1.0950000,-0.0161053
1.1000000,1.1000000,1.1000000,-0.0156514
1.1050000,1.1050000,1.1050000,-0.0152124
1.1100000,1.1100000,1.1100000,-0.0147878
1.1150000,1.1150000,1.1150000,-0.0143771
1.1200000,1.1200000,1.1200000,-0.0139797
1.1250000,1.1250000,1.1250000,-0.0135951
1.1300000,1.1300000,1.1300000,-0.0132228
1.1350000,1.1350000,1.1350000,-0.0128625
1.1400000,1.1400000,1.1400000,-0.0125137
1.1450000,1.1450000,1.1450000,-0.0121759
1.1500000,1.1500000,1.1500000,-0.0118487
1.1550000,1.1550000,1.1550000,-0.0115318
1.1600000,1.1600000,1.1600000,-0.0112248
1.1650000,1.1650000,1.1650000,-0.0109274
1.1700000,1.1700000,1.1700000,-0.0106391
1.1750000,1.1750000,1.1750000,-0.0103598
1.1800000,1.1800000,1.1800000,-0.0100890
1.1850000,1.1850000,1.1850000,-0.0098264
1.1900000,1.1900000,1.1900000,-0.0095719
1.1950000,1.1950000,1.1950000,-0.0093250
1.2000000,1.2000000,1.2000000,-0.0090856
1.2050000,1.2050000,1.2050000,-0.0088534
1.2100000,1.2100000,1.2100000,-0.0086280
1.2150000,1.2150000,1.2150000,-0.0084094
1.2200000,1.2200000,1.2200000,-0.0081973
1.2250000,1.2250000,1.2250000,-0.0079914
1.2300000,1.2300000,1.2300000,-0.0077915
1.2350000,1.2350000,1.2350000,-0.0075975
1.2400000,1.2400000,1.2400000,-0.0074091
1.2450000,1.2450000,1.2450000,-0.0072262
1.2500000,1.2500000,1.2500000,-0.0070485
1.2550000,1.2550000,1.2550000,-0.0068759
1.2600000,1.2600000,1.2600000,-0.0067083
1.2650000,1.2650000,1.2650000,-0.0065455
1.2700000,1.2700000,1.2700000,-0.0063872
1.2750000,1.2750000,1.2750000,-0.0062334
1.2800000,1.2800000,1.2800000,-0.0060840
1.2850000,1.2850000,1.2850000,-0.0059387
1.2900000,1.2900000,1.2900000,-0.0057975
1.2950000,1.2950000,1.2950000,-0.0056602
1.3000000,1.3000000,1.3000000,-0.0055267
1.3050000,1.3050000,1.3050000,-0.0053968
1.3100000,1.3100000,1.3100000,-0.0052706
1.3150000,1.3150000,1.3150000,-0.0051478
1.3200000,1.3200000,1.3200000,-0.0050283
1.3250000,1.3250000,1.3250000,-0.0049120
1.3300000,1.3300000,1.3300000,-0.0047989
1.3350000,1.3350000,1.3350000,-0.0046888
1.3400000,1.3400000,1.3400000,-0.0045817
1.3450000,1.3450000,1.3450000,-0.0044774
1.3500000,1.3500000,1.3500000,-0.0043760
1.3550000,1.3550000,1.3550000,-0.0042771
1.3600000,1.3600000,1.3600000,-0.0041809
1.3650000,1.3650000,1.3650000,-0.0040872
1.3700000,1.3700000,1.3700000,-0.0039960
1.3750000,1.3750000,1.3750000,-0.0039072
1.3800000,1.3800000,1.3800000,-0.0038206
1.3850000,1.3850000,1.3850000,-0.0037363
1.3900000,1.3900000,1.3900000,-0.0036541
1.3950000,1.3950000,1.3950000,-0.0035741
1.4000000,1.4000000,1.4000000,-0.0034961
1.4050000,1.4050000,1.4050000,-0.0034201
1.4100000,1.4100000,1.4100000,-0.0033460
1.4150000,1.4150000,1.4150000,-0.0032738
1.4200000,1.4200000,1.4200000,-0.0032034
1.4250000,1.4250000,1.4250000,-0.0031348
1.4300000,1.4300000,1.4300000,-0.0030679
1.4350000,1.4350000,1.4350000,-0.0030027
1.4400000,1.4400000,1.4400000,-0.0029391
1.4450000,1.4450000,1.4450000,-0.0028770
1.4500000,1.4500000,1.4500000,-0.0028165
1.4550000,1.4550000,1.4550000,-0.0027575
1.4600000,1.4600000,1.4600000,-0.0026999
1.4650000,1.4650000,1.4650000,-0.0026437
1.4700000,1.4700000,1.4700000,-0.0025889
1.4750000,1.4750000,1.4750000,-0.0025354
1.4800000,1.4800000,1.4800000,-0.0024832
1.4850000,1.4850000,1.4850000,-0.0024322
1.4900000,1.4900000,1.4900000,-0.0023825
1.4950000,1.4950000,1.4950000,-0.0023339
1.5000000,1.5000000,1.5000000,-0.0022865
1.5050000,1.5050000,1.5050000,-0.0022403
1.5100000,1.5100000,1.5100000,-0.0021951
1.5150000,1.5150000,1.5150000,-0.0021510
1.5200000,1.5200000,1.5200000,-0.0021079
1.5250000,1.5250000,1.5250000,-0.0020658
1.5300000,1.5300000,1.5300000,-0.0020247
1.5350000,1.5350000,1.5350000,-0.0019846
1.5400000,1.5400000,1.5400000,-0.0019454
1.5450000,1.5450000,1.5450000,-0.0019071
1.5500000,1.5500000,1.5500000,-0.0018696
1.5550000,1.5550000,1.5550000,-0.0018331
1.5600000,1.5600000,1.5600000,-0.0017973
1.5650000,1.5650000,1.5650000,-0.0017624
1.5700000,1.5700000,1.5700000,-0.0017283
1.5750000,1.5750000,1.5750000,-0.0016949
1.5800000,1.5800000,1.5800000,-0.0016623
1.5850000,1.5850000,1.5850000,-0.0016304
1.5900000,1.5900000,1.5900000,-0.0015992
1.5950000,1.5950000,1.5950000,-0.0015688
