# r[nm],d[nm],daligned[nm],Uwater(d)[kj/mol]
0.0000000,0.0000000,0.0000000,2259355961.6719518
0.0050000,0.0050000,0.0050000,843219070.6411935
0.0100000,0.0100000,0.0100000,338978290.8055346
0.0150000,0.0150000,0.0150000,145367669.8459890
0.0200000,0.0200000,0.0200000,66018657.6498978
0.0250000,0.0250000,0.0250000,31592181.5368596
0.0300000,0.0300000,0.0300000,15885170.9480110
0.0350000,0.0350000,0.0350000,8388348.3389533
0.0400000,0.0400000,0.0400000,4659176.9882613
0.0450000,0.0450000,0.0450000,2729890.7587288
0.0500000,0.0500000,0.0500000,1691892.8913413
0.0550000,0.0550000,0.0550000,1109863.8533245
0.0600000,0.0600000,0.0600000,768325.9362724
0.0650000,0.0650000,0.0650000,557533.7927432
0.0700000,0.0700000,0.0700000,420183.3985630
0.0750000,0.0750000,0.0750000,325680.8788599
0.0800000,0.0800000,0.0800000,257340.1327912
0.0850000,0.0850000,0.0850000,205844.4178831
0.0900000,0.0900000,0.0900000,165834.7654954
0.0950000,0.0950000,0.0950000,134101.6401115
0.1000000,0.1000000,0.1000000,106160.2307774
0.1050000,0.1050000,0.1050000,83911.7125001
0.1100000,0.1100000,0.1100000,68341.1526171
0.1150000,0.1150000,0.1150000,57202.2711143
0.1200000,0.1200000,0.1200000,46799.1167147
0.1250000,0.1250000,0.1250000,37909.9320027
0.1300000,0.1300000,0.1300000,30716.1254336
0.1350000,0.1350000,0.1350000,24896.0973434
0.1400000,0.1400000,0.1400000,20186.7720429
0.1450000,0.1450000,0.1450000,16374.0563211
0.1500000,0.1500000,0.1500000,13284.6583449
0.1550000,0.1550000,0.1550000,10778.9429340
0.1600000,0.1600000,0.1600000,8744.7315407
0.1650000,0.1650000,0.1650000,7092.0162105
0.1700000,0.1700000,0.1700000,5748.5466987
0.1750000,0.1750000,0.1750000,4584.8272593
0.1800000,0.1800000,0.1800000,3629.8303615
0.1850000,0.1850000,0.1850000,2879.1543969
0.1900000,0.1900000,0.1900000,2286.6306243
0.1950000,0.1950000,0.1950000,1829.8810850
0.2000000,0.2000000,0.2000000,1457.5884057
0.2050000,0.2050000,0.2050000,1161.6916474
0.2100000,0.2100000,0.2100000,926.2710267
0.2150000,0.2150000,0.2150000,738.8474915
0.2200000,0.2200000,0.2200000,589.5844192
0.2250000,0.2250000,0.2250000,470.6960709
0.2300000,0.2300000,0.2300000,376.0020008
0.2350000,0.2350000,0.2350000,300.5864679
0.2400000,0.2400000,0.2400000,240.5348645
0.2450000,0.2450000,0.2450000,192.7277001
0.2500000,0.2500000,0.2500000,154.6783343
0.2550000,0.2550000,0.2550000,124.4044172
0.2600000,0.2600000,0.2600000,100.3254553
0.2650000,0.2650000,0.2650000,81.1800232
0.2700000,0.2700000,0.2700000,65.9560918
0.2750000,0.2750000,0.2750000,53.8325217
0.2800000,0.2800000,0.2800000,44.1407794
0.2850000,0.2850000,0.2850000,36.3506308
0.2900000,0.2900000,0.2900000,30.0601634
0.2950000,0.2950000,0.2950000,24.9711937
0.3000000,0.3000000,0.3000000,20.8568161
0.3050000,0.3050000,0.3050000,17.5356435
0.3100000,0.3100000,0.3100000,14.8560650
0.3150000,0.3150000,0.3150000,12.6874383
0.3200000,0.3200000,0.3200000,10.9168587
0.3250000,0.3250000,0.3250000,9.4505994
0.3300000,0.3300000,0.3300000,8.2157070
0.3350000,0.3350000,0.3350000,7.1575506
0.3400000,0.3400000,0.3400000,6.2340917
0.3450000,0.3450000,0.3450000,5.4090426
0.3500000,0.3500000,0.3500000,4.6476325
0.3550000,0.3550000,0.3550000,3.9223434
0.3600000,0.3600000,0.3600000,3.2249433
0.3650000,0.3650000,0.3650000,2.5675586
0.3700000,0.3700000,0.3700000,1.9695445
0.3750000,0.3750000,0.3750000,1.4444924
0.3800000,0.3800000,0.3800000,0.9961273
0.3850000,0.3850000,0.3850000,0.6205903
0.3900000,0.3900000,0.3900000,0.3096982
0.3950000,0.3950000,0.3950000,0.0526231
0.4000000,0.4000000,0.4000000,-0.1628007
0.4050000,0.4050000,0.4050000,-0.3477358
0.4100000,0.4100000,0.4100000,-0.5101581
0.4150000,0.4150000,0.4150000,-0.6543165
0.4200000,0.4200000,0.4200000,-0.7815434
0.4250000,0.4250000,0.4250000,-0.8914851
0.4300000,0.4300000,0.4300000,-0.9832831
0.4350000,0.4350000,0.4350000,-1.0565044
0.4400000,0.4400000,0.4400000,-1.1116041
0.4450000,0.4450000,0.4450000,-1.1498802
0.4500000,0.4500000,0.4500000,-1.1731223
0.4550000,0.4550000,0.4550000,-1.1832235
0.4600000,0.4600000,0.4600000,-1.1819442
0.4650000,0.4650000,0.4650000,-1.1708717
0.4700000,0.4700000,0.4700000,-1.1514842
0.4750000,0.4750000,0.4750000,-1.1252109
0.4800000,0.4800000,0.4800000,-1.0934415
0.4850000,0.4850000,0.4850000,-1.0574943
0.4900000,0.4900000,0.4900000,-1.0185733
0.4950000,0.4950000,0.4950000,-0.9777344
0.5000000,0.5000000,0.5000000,-0.9358698
0.5050000,0.5050000,0.5050000,-0.8937080
0.5100000,0.5100000,0.5100000,-0.8518257
0.5150000,0.5150000,0.5150000,-0.8106658
0.5200000,0.5200000,0.5200000,-0.7705576
0.5250000,0.5250000,0.5250000,-0.7317369
0.5300000,0.5300000,0.5300000,-0.6943641
0.5350000,0.5350000,0.5350000,-0.6585401
0.5400000,0.5400000,0.5400000,-0.6243194
0.5450000,0.5450000,0.5450000,-0.5917208
0.5500000,0.5500000,0.5500000,-0.5607368
0.5550000,0.5550000,0.5550000,-0.5313398
0.5600000,0.5600000,0.5600000,-0.5034882
0.5650000,0.5650000,0.5650000,-0.4771305
0.5700000,0.5700000,0.5700000,-0.4522084
0.5750000,0.5750000,0.5750000,-0.4286597
0.5800000,0.5800000,0.5800000,-0.4064200
0.5850000,0.5850000,0.5850000,-0.3854243
0.5900000,0.5900000,0.5900000,-0.3656079
0.5950000,0.5950000,0.5950000,-0.3469074
0.6000000,0.6000000,0.6000000,-0.3292613
0.6050000,0.6050000,0.6050000,-0.3126101
0.6100000,0.6100000,0.6100000,-0.2968967
0.6150000,0.6150000,0.6150000,-0.2820667
0.6200000,0.6200000,0.6200000,-0.2680683
0.6250000,0.6250000,0.6250000,-0.2548525
0.6300000,0.6300000,0.6300000,-0.2423728
0.6350000,0.6350000,0.6350000,-0.2305853
0.6400000,0.6400000,0.6400000,-0.2194487
0.6450000,0.6450000,0.6450000,-0.2089241
0.6500000,0.6500000,0.6500000,-0.1989749
0.6550000,0.6550000,0.6550000,-0.1895668
0.6600000,0.6600000,0.6600000,-0.1806675
0.6650000,0.6650000,0.6650000,-0.1722468
0.6700000,0.6700000,0.6700000,-0.1642762
0.6750000,0.6750000,0.6750000,-0.1567291
0.6800000,0.6800000,0.6800000,-0.1495805
0.6850000,0.6850000,0.6850000,-0.1428071
0.6900000,0.6900000,0.6900000,-0.1363870
0.6950000,0.6950000,0.6950000,-0.1302995
0.7000000,0.7000000,0.7000000,-0.1245254
0.7050000,0.7050000,0.7050000,-0.1190467
0.7100000,0.7100000,0.7100000,-0.1138464
0.7150000,0.7150000,0.7150000,-0.1089086
0.7200000,0.7200000,0.7200000,-0.1042185
0.7250000,0.7250000,0.7250000,-0.0997621
0.7300000,0.7300000,0.7300000,-0.0955262
0.7350000,0.7350000,0.7350000,-0.0914986
0.7400000,0.7400000,0.7400000,-0.0876677
0.7450000,0.7450000,0.7450000,-0.0840227
0.7500000,0.7500000,0.7500000,-0.0805533
0.7550000,0.7550000,0.7550000,-0.0772501
0.7600000,0.7600000,0.7600000,-0.0741041
0.7650000,0.7650000,0.7650000,-0.0711067
0.7700000,0.7700000,0.7700000,-0.0682500
0.7750000,0.7750000,0.7750000,-0.0655265
0.7800000,0.7800000,0.7800000,-0.0629292
0.7850000,0.7850000,0.7850000,-0.0604515
0.7900000,0.7900000,0.7900000,-0.0580872
0.7950000,0.7950000,0.7950000,-0.0558302
0.8000000,0.8000000,0.8000000,-0.0536752
0.8050000,0.8050000,0.8050000,-0.0516169
0.8100000,0.8100000,0.8100000,-0.0496503
0.8150000,0.8150000,0.8150000,-0.0477708
0.8200000,0.8200000,0.8200000,-0.0459740
0.8250000,0.8250000,0.8250000,-0.0442559
0.8300000,0.8300000,0.8300000,-0.0426124
0.8350000,0.8350000,0.8350000,-0.0410399
0.8400000,0.8400000,0.8400000,-0.0395349
0.8450000,0.8450000,0.8450000,-0.0380941
0.8500000,0.8500000,0.8500000,-0.0367144
0.8550000,0.8550000,0.8550000,-0.0353929
0.8600000,0.8600000,0.8600000,-0.0341267
0.8650000,0.8650000,0.8650000,-0.0329132
0.8700000,0.8700000,0.8700000,-0.0317499
0.8750000,0.8750000,0.8750000,-0.0306345
0.8800000,0.8800000,0.8800000,-0.0295647
0.8850000,0.8850000,0.8850000,-0.0285384
0.8900000,0.8900000,0.8900000,-0.0275536
0.8950000,0.8950000,0.8950000,-0.0266083
0.9000000,0.9000000,0.9000000,-0.0257008
0.9050000,0.9050000,0.9050000,-0.0248294
0.9100000,0.9100000,0.9100000,-0.0239923
0.9150000,0.9150000,0.9150000,-0.0231881
0.9200000,0.9200000,0.9200000,-0.0224153
0.9250000,0.9250000,0.9250000,-0.0216724
0.9300000,0.9300000,0.9300000,-0.0209583
0.9350000,0.9350000,0.9350000,-0.0202715
0.9400000,0.9400000,0.9400000,-0.0196110
0.9450000,0.9450000,0.9450000,-0.0189755
0.9500000,0.9500000,0.9500000,-0.0183640
0.9550000,0.9550000,0.9550000,-0.0177755
0.9600000,0.9600000,0.9600000,-0.0172089
0.9650000,0.9650000,0.9650000,-0.0166633
0.9700000,0.9700000,0.9700000,-0.0161379
0.9750000,0.9750000,0.9750000,-0.0156318
0.9800000,0.9800000,0.9800000,-0.0151442
0.9850000,0.9850000,0.9850000,-0.0146743
0.9900000,0.9900000,0.9900000,-0.0142214
0.9950000,0.9950000,0.9950000,-0.0137848
1.0000000,1.0000000,1.0000000,-0.0133638
1.0050000,1.0050000,1.0050000,-0.0129577
1.0100000,1.0100000,1.0100000,-0.0125661
1.0150000,1.0150000,1.0150000,-0.0121882
1.0200000,1.0200000,1.0200000,-0.0118235
1.0250000,1.0250000,1.0250000,-0.0114716
1.0300000,1.0300000,1.0300000,-0.0111319
1.0350000,1.0350000,1.0350000,-0.0108039
1.0400000,1.0400000,1.0400000,-0.0104871
1.0450000,1.0450000,1.0450000,-0.0101812
1.0500000,1.0500000,1.0500000,-0.0098857
1.0550000,1.0550000,1.0550000,-0.0096001
1.0600000,1.0600000,1.0600000,-0.0093242
1.0650000,1.0650000,1.0650000,-0.0090575
1.0700000,1.0700000,1.0700000,-0.0087997
1.0750000,1.0750000,1.0750000,-0.0085504
1.0800000,1.0800000,1.0800000,-0.0083094
1.0850000,1.0850000,1.0850000,-0.0080763
1.0900000,1.0900000,1.0900000,-0.0078508
1.0950000,1.0950000,1.0950000,-0.0076326
1.1000000,1.1000000,1.1000000,-0.0074215
1.1050000,1.1050000,1.1050000,-0.0072172
1.1100000,1.1100000,1.1100000,-0.0070195
1.1150000,1.1150000,1.1150000,-0.0068281
1.1200000,1.1200000,1.1200000,-0.0066427
1.1250000,1.1250000,1.1250000,-0.0064632
1.1300000,1.1300000,1.1300000,-0.0062894
1.1350000,1.1350000,1.1350000,-0.0061210
1.1400000,1.1400000,1.1400000,-0.0059578
1.1450000,1.1450000,1.1450000,-0.0057998
1.1500000,1.1500000,1.1500000,-0.0056466
1.1550000,1.1550000,1.1550000,-0.0054981
1.1600000,1.1600000,1.1600000,-0.0053542
1.1650000,1.1650000,1.1650000,-0.0052147
1.1700000,1.1700000,1.1700000,-0.0050794
1.1750000,1.1750000,1.1750000,-0.0049481
1.1800000,1.1800000,1.1800000,-0.0048209
1.1850000,1.1850000,1.1850000,-0.0046974
1.1900000,1.1900000,1.1900000,-0.0045777
1.1950000,1.1950000,1.1950000,-0.0044615
1.2000000,1.2000000,1.2000000,-0.0043487
1.2050000,1.2050000,1.2050000,-0.0042392
1.2100000,1.2100000,1.2100000,-0.0041330
1.2150000,1.2150000,1.2150000,-0.0040299
1.2200000,1.2200000,1.2200000,-0.0039297
1.2250000,1.2250000,1.2250000,-0.0038325
1.2300000,1.2300000,1.2300000,-0.0037380
1.2350000,1.2350000,1.2350000,-0.0036463
1.2400000,1.2400000,1.2400000,-0.0035572
1.2450000,1.2450000,1.2450000,-0.0034706
1.2500000,1.2500000,1.2500000,-0.0033865
1.2550000,1.2550000,1.2550000,-0.0033048
1.2600000,1.2600000,1.2600000,-0.0032254
1.2650000,1.2650000,1.2650000,-0.0031481
1.2700000,1.2700000,1.2700000,-0.0030731
1.2750000,1.2750000,1.2750000,-0.0030001
1.2800000,1.2800000,1.2800000,-0.0029291
1.2850000,1.2850000,1.2850000,-0.0028601
1.2900000,1.2900000,1.2900000,-0.0027930
1.2950000,1.2950000,1.2950000,-0.0027278
1.3000000,1.3000000,1.3000000,-0.0026643
1.3050000,1.3050000,1.3050000,-0.0026025
1.3100000,1.3100000,1.3100000,-0.0025424
1.3150000,1.3150000,1.3150000,-0.0024839
1.3200000,1.3200000,1.3200000,-0.0024270
1.3250000,1.3250000,1.3250000,-0.0023716
1.3300000,1.3300000,1.3300000,-0.0023176
1.3350000,1.3350000,1.3350000,-0.0022651
1.3400000,1.3400000,1.3400000,-0.0022140
1.3450000,1.3450000,1.3450000,-0.0021643
1.3500000,1.3500000,1.3500000,-0.0021158
1.3550000,1.3550000,1.3550000,-0.0020686
1.3600000,1.3600000,1.3600000,-0.0020226
1.3650000,1.3650000,1.3650000,-0.0019778
1.3700000,1.3700000,1.3700000,-0.0019342
1.3750000,1.3750000,1.3750000,-0.0018917
1.3800000,1.3800000,1.3800000,-0.0018503
1.3850000,1.3850000,1.3850000,-0.0018099
1.3900000,1.3900000,1.3900000,-0.0017706
1.3950000,1.3950000,1.3950000,-0.0017322
1.4000000,1.4000000,1.4000000,-0.0016948
1.4050000,1.4050000,1.4050000,-0.0016584
1.4100000,1.4100000,1.4100000,-0.0016229
1.4150000,1.4150000,1.4150000,-0.0015883
1.4200000,1.4200000,1.4200000,-0.0015545
1.4250000,1.4250000,1.4250000,-0.0015215
1.4300000,1.4300000,1.4300000,-0.0014894
1.4350000,1.4350000,1.4350000,-0.0014581
1.4400000,1.4400000,1.4400000,-0.0014275
1.4450000,1.4450000,1.4450000,-0.0013977
1.4500000,1.4500000,1.4500000,-0.0013686
1.4550000,1.4550000,1.4550000,-0.0013402
1.4600000,1.4600000,1.4600000,-0.0013125
1.4650000,1.4650000,1.4650000,-0.0012855
1.4700000,1.4700000,1.4700000,-0.0012591
1.4750000,1.4750000,1.4750000,-0.0012333
1.4800000,1.4800000,1.4800000,-0.0012082
1.4850000,1.4850000,1.4850000,-0.0011836
1.4900000,1.4900000,1.4900000,-0.0011597
1.4950000,1.4950000,1.4950000,-0.0011363
1.5000000,1.5000000,1.5000000,-0.0011134
1.5050000,1.5050000,1.5050000,-0.0010911
1.5100000,1.5100000,1.5100000,-0.0010693
1.5150000,1.5150000,1.5150000,-0.0010480
1.5200000,1.5200000,1.5200000,-0.0010272
1.5250000,1.5250000,1.5250000,-0.0010069
1.5300000,1.5300000,1.5300000,-0.0009871
1.5350000,1.5350000,1.5350000,-0.0009677
1.5400000,1.5400000,1.5400000,-0.0009487
1.5450000,1.5450000,1.5450000,-0.0009302
1.5500000,1.5500000,1.5500000,-0.0009121
1.5550000,1.5550000,1.5550000,-0.0008945
1.5600000,1.5600000,1.5600000,-0.0008772
1.5650000,1.5650000,1.5650000,-0.0008603
1.5700000,1.5700000,1.5700000,-0.0008438
1.5750000,1.5750000,1.5750000,-0.0008276
1.5800000,1.5800000,1.5800000,-0.0008118
1.5850000,1.5850000,1.5850000,-0.0007964
1.5900000,1.5900000,1.5900000,-0.0007813
1.5950000,1.5950000,1.5950000,-0.0007666
