# r[nm],d[nm],daligned[nm],Uwater(d)[kj/mol]
0.0000000,0.0000000,0.0000000,2259355961.6719518
0.0050000,0.0050000,0.0050000,843219070.6411935
0.0100000,0.0100000,0.0100000,338978290.8055346
0.0150000,0.0150000,0.0150000,145367669.8459890
0.0200000,0.0200000,0.0200000,66018657.6498978
0.0250000,0.0250000,0.0250000,31592181.5368596
0.0300000,0.0300000,0.0300000,15885170.9480110
0.0350000,0.0350000,0.0350000,8388348.3389533
0.0400000,0.0400000,0.0400000,4659176.9882613
0.0450000,0.0450000,0.0450000,2729890.7587288
0.0500000,0.0500000,0.0500000,1691892.8913413
0.0550000,0.0550000,0.0550000,1109863.8533245
0.0600000,0.0600000,0.0600000,768325.9362724
0.0650000,0.0650000,0.0650000,553950.2499701
0.0700000,0.0700000,0.0700000,404450.7183223
0.0750000,0.0750000,0.0750000,304452.9669108
0.0800000,0.0800000,0.0800000,233979.1700331
0.0850000,0.0850000,0.0850000,181743.2006205
0.0900000,0.0900000,0.0900000,143626.3347960
0.0950000,0.0950000,0.0950000,115165.1343854
0.1000000,0.1000000,0.1000000,93533.6632410
0.1050000,0.1050000,0.1050000,76861.5879816
0.1100000,0.1100000,0.1100000,63333.9380229
0.1150000,0.1150000,0.1150000,52219.2030905
0.1200000,0.1200000,0.1200000,43296.3446741
0.1250000,0.1250000,0.1250000,36080.8690747
0.1300000,0.1300000,0.1300000,30198.8042472
0.1350000,0.1350000,0.1350000,24896.0973434
0.1400000,0.1400000,0.1400000,20186.7720429
0.1450000,0.1450000,0.1450000,16374.0563211
0.1500000,0.1500000,0.1500000,13284.6583449
0.1550000,0.1550000,0.1550000,10778.9429340
0.1600000,0.1600000,0.1600000,8744.7315407
0.1650000,0.1650000,0.1650000,7092.0162105
0.1700000,0.1700000,0.1700000,5748.5466987
0.1750000,0.1750000,0.1750000,4638.4400165
0.1800000,0.1800000,0.1800000,3602.6063996
0.1850000,0.1850000,0.1850000,2804.9955147
0.1900000,0.1900000,0.1900000,2188.4585356
0.1950000,0.1950000,0.1950000,1722.6111226
0.2000000,0.2000000,0.2000000,1350.8811897
0.2050000,0.2050000,0.2050000,1061.1905086
0.2100000,0.2100000,0.2100000,834.9868065
0.2150000,0.2150000,0.2150000,658.0494321
0.2200000,0.2200000,0.2200000,519.4337981
0.2250000,0.2250000,0.2250000,410.6884464
0.2300000,0.2300000,0.2300000,325.2688090
0.2350000,0.2350000,0.2350000,258.0948169
0.2400000,0.2400000,0.2400000,205.2149398
0.2450000,0.2450000,0.2450000,163.5497304
0.2500000,0.2500000,0.2500000,130.6950971
0.2550000,0.2550000,0.2550000,104.7699771
0.2600000,0.2600000,0.2600000,84.2963941
0.2650000,0.2650000,0.2650000,68.1062710
0.2700000,0.2700000,0.2700000,55.2757139
0.2750000,0.2750000,0.2750000,45.0821767
0.2800000,0.2800000,0.2800000,36.9695944
0.2850000,0.2850000,0.2850000,30.5107878
0.2900000,0.2900000,0.2900000,25.3705584
0.2950000,0.2950000,0.2950000,21.2770868
0.3000000,0.3000000,0.3000000,18.0035575
0.3050000,0.3050000,0.3050000,15.3583378
0.3100000,0.3100000,0.3100000,13.1824449
0.3150000,0.3150000,0.3150000,11.3518336
0.3200000,0.3200000,0.3200000,9.7792828
0.3250000,0.3250000,0.3250000,8.4109880
0.3300000,0.3300000,0.3300000,7.2165624
0.3350000,0.3350000,0.3350000,6.1758240
0.3400000,0.3400000,0.3400000,5.2682696
0.3450000,0.3450000,0.3450000,4.4696831
0.3500000,0.3500000,0.3500000,3.7560650
0.3550000,0.3550000,0.3550000,3.1101547
0.3600000,0.3600000,0.3600000,2.5241740
0.3650000,0.3650000,0.3650000,1.9967416
0.3700000,0.3700000,0.3700000,1.5277170
0.3750000,0.3750000,0.3750000,1.1152058
0.3800000,0.3800000,0.3800000,0.7555169
0.3850000,0.3850000,0.3850000,0.4444360
0.3900000,0.3900000,0.3900000,0.1780011
0.3950000,0.3950000,0.3950000,-0.0477201
0.4000000,0.4000000,0.4000000,-0.2372822
0.4050000,0.4050000,0.4050000,-0.3962376
0.4100000,0.4100000,0.4100000,-0.5308335
0.4150000,0.4150000,0.4150000,-0.6470585
0.4200000,0.4200000,0.4200000,-0.7494336
0.4250000,0.4250000,0.4250000,-0.8402596
0.4300000,0.4300000,0.4300000,-0.9198588
0.4350000,0.4350000,0.4350000,-0.9875576
0.4400000,0.4400000,0.4400000,-1.0427142
0.4450000,0.4450000,0.4450000,-1.0852960
0.4500000,0.4500000,0.4500000,-1.1158577
0.4550000,0.4550000,0.4550000,-1.1351703
0.4600000,0.4600000,0.4600000,-1.1439509
0.4650000,0.4650000,0.4650000,-1.1428796
0.4700000,0.4700000,0.4700000,-1.1327546
0.4750000,0.4750000,0.4750000,-1.1145911
0.4800000,0.4800000,0.4800000,-1.0896029
0.4850000,0.4850000,0.4850000,-1.0591075
0.4900000,0.4900000,0.4900000,-1.0244149
0.4950000,0.4950000,0.4950000,-0.9867394
0.5000000,0.5000000,0.5000000,-0.9471468
0.5050000,0.5050000,0.5050000,-0.9065326
0.5100000,0.5100000,0.5100000,-0.8656230
0.5150000,0.5150000,0.5150000,-0.8249885
0.5200000,0.5200000,0.5200000,-0.7850641
0.5250000,0.5250000,0.5250000,-0.7461714
0.5300000,0.5300000,0.5300000,-0.7085389
0.5350000,0.5350000,0.5350000,-0.6723212
0.5400000,0.5400000,0.5400000,-0.6376143
0.5450000,0.5450000,0.5450000,-0.6044693
0.5500000,0.5500000,0.5500000,-0.5729030
0.5550000,0.5550000,0.5550000,-0.5429063
0.5600000,0.5600000,0.5600000,-0.5144514
0.5650000,0.5650000,0.5650000,-0.4874966
0.5700000,0.5700000,0.5700000,-0.4619910
0.5750000,0.5750000,0.5750000,-0.4378774
0.5800000,0.5800000,0.5800000,-0.4150949
0.5850000,0.5850000,0.5850000,-0.3935805
0.5900000,0.5900000,0.5900000,-0.3732707
0.5950000,0.5950000,0.5950000,-0.3541027
0.6000000,0.6000000,0.6000000,-0.3360147
0.6050000,0.6050000,0.6050000,-0.3189469
0.6100000,0.6100000,0.6100000,-0.3028416
0.6150000,0.6150000,0.6150000,-0.2876434
0.6200000,0.6200000,0.6200000,-0.2732995
0.6250000,0.6250000,0.6250000,-0.2597598
0.6300000,0.6300000,0.6300000,-0.2469767
0.6350000,0.6350000,0.6350000,-0.2349051
0.6400000,0.6400000,0.6400000,-0.2235028
0.6450000,0.6450000,0.6450000,-0.2127296
0.6500000,0.6500000,0.6500000,-0.2025479
0.6550000,0.6550000,0.6550000,-0.1929224
0.6600000,0.6600000,0.6600000,-0.1838198
0.6650000,0.6650000,0.6650000,-0.1752090
0.6700000,0.6700000,0.6700000,-0.1670606
0.6750000,0.6750000,0.6750000,-0.1593473
0.6800000,0.6800000,0.6800000,-0.1520432
0.6850000,0.6850000,0.6850000,-0.1451244
0.6900000,0.6900000,0.6900000,-0.1385682
0.6950000,0.6950000,0.6950000,-0.1323533
0.7000000,0.7000000,0.7000000,-0.1264600
0.7050000,0.7050000,0.7050000,-0.1208696
0.7100000,0.7100000,0.7100000,-0.1155647
0.7150000,0.7150000,0.7150000,-0.1105290
0.7200000,0.7200000,0.7200000,-0.1057470
0.7250000,0.7250000,0.7250000,-0.1012044
0.7300000,0.7300000,0.7300000,-0.0968878
0.7350000,0.7350000,0.7350000,-0.0927844
0.7400000,0.7400000,0.7400000,-0.0888824
0.7450000,0.7450000,0.7450000,-0.0851707
0.7500000,0.7500000,0.7500000,-0.0816386
0.7550000,0.7550000,0.7550000,-0.0782765
0.7600000,0.7600000,0.7600000,-0.0750751
0.7650000,0.7650000,0.7650000,-0.0720256
0.7700000,0.7700000,0.7700000,-0.0691200
0.7750000,0.7750000,0.7750000,-0.0663505
0.7800000,0.7800000,0.7800000,-0.0637099
0.7850000,0.7850000,0.7850000,-0.0611914
0.7900000,0.7900000,0.7900000,-0.0587886
0.7950000,0.7950000,0.7950000,-0.0564954
0.8000000,0.8000000,0.8000000,-0.0543063
0.8050000,0.8050000,0.8050000,-0.0522158
0.8100000,0.8100000,0.8100000,-0.0502188
0.8150000,0.8150000,0.8150000,-0.0483107
0.8200000,0.8200000,0.8200000,-0.0464869
0.8250000,0.8250000,0.8250000,-0.0447432
0.8300000,0.8300000,0.8300000,-0.0430756
0.8350000,0.8350000,0.8350000,-0.0414804
0.8400000,0.8400000,0.8400000,-0.0399538
0.8450000,0.8450000,0.8450000,-0.0384927
0.8500000,0.8500000,0.8500000,-0.0370938
0.8550000,0.8550000,0.8550000,-0.0357540
0.8600000,0.8600000,0.8600000,-0.0344706
0.8650000,0.8650000,0.8650000,-0.0332408
0.8700000,0.8700000,0.8700000,-0.0320621
0.8750000,0.8750000,0.8750000,-0.0309321
0.8800000,0.8800000,0.8800000,-0.0298484
0.8850000,0.8850000,0.8850000,-0.0288090
0.8900000,0.8900000,0.8900000,-0.0278117
0.8950000,0.8950000,0.8950000,-0.0268546
0.9000000,0.9000000,0.9000000,-0.0259358
0.9050000,0.9050000,0.9050000,-0.0250537
0.9100000,0.9100000,0.9100000,-0.0242066
0.9150000,0.9150000,0.9150000,-0.0233928
0.9200000,0.9200000,0.9200000,-0.0226108
0.9250000,0.9250000,0.9250000,-0.0218593
0.9300000,0.9300000,0.9300000,-0.0211369
0.9350000,0.9350000,0.9350000,-0.0204424
0.9400000,0.9400000,0.9400000,-0.0197744
0.9450000,0.9450000,0.9450000,-0.0191318
0.9500000,0.9500000,0.9500000,-0.0185136
0.9550000,0.9550000,0.9550000,-0.0179186
0.9600000,0.9600000,0.9600000,-0.0173460
0.9650000,0.9650000,0.9650000,-0.0167946
0.9700000,0.9700000,0.9700000,-0.0162637
0.9750000,0.9750000,0.9750000,-0.0157523
0.9800000,0.9800000,0.9800000,-0.0152597
0.9850000,0.9850000,0.9850000,-0.0147850
0.9900000,0.9900000,0.9900000,-0.0143275
0.9950000,0.9950000,0.9950000,-0.0138865
1.0000000,1.0000000,1.0000000,-0.0134613
1.0050000,1.0050000,1.0050000,-0.0130513
1.0100000,1.0100000,1.0100000,-0.0126559
1.0150000,1.0150000,1.0150000,-0.0122744
1.0200000,1.0200000,1.0200000,-0.0119063
1.0250000,1.0250000,1.0250000,-0.0115511
1.0300000,1.0300000,1.0300000,-0.0112082
1.0350000,1.0350000,1.0350000,-0.0108772
1.0400000,1.0400000,1.0400000,-0.0105575
1.0450000,1.0450000,1.0450000,-0.0102489
1.0500000,1.0500000,1.0500000,-0.0099507
1.0550000,1.0550000,1.0550000,-0.0096626
1.0600000,1.0600000,1.0600000,-0.0093843
1.0650000,1.0650000,1.0650000,-0.0091153
1.0700000,1.0700000,1.0700000,-0.0088553
1.0750000,1.0750000,1.0750000,-0.0086039
1.0800000,1.0800000,1.0800000,-0.0083609
1.0850000,1.0850000,1.0850000,-0.0081258
1.0900000,1.0900000,1.0900000,-0.0078985
1.0950000,1.0950000,1.0950000,-0.0076786
1.1000000,1.1000000,1.1000000,-0.0074658
1.1050000,1.1050000,1.1050000,-0.0072598
1.1100000,1.1100000,1.1100000,-0.0070605
1.1150000,1.1150000,1.1150000,-0.0068676
1.1200000,1.1200000,1.1200000,-0.0066808
1.1250000,1.1250000,1.1250000,-0.0064999
1.1300000,1.1300000,1.1300000,-0.0063248
1.1350000,1.1350000,1.1350000,-0.0061551
1.1400000,1.1400000,1.1400000,-0.0059908
1.1450000,1.1450000,1.1450000,-0.0058315
1.1500000,1.1500000,1.1500000,-0.0056772
1.1550000,1.1550000,1.1550000,-0.0055277
1.1600000,1.1600000,1.1600000,-0.0053827
1.1650000,1.1650000,1.1650000,-0.0052422
1.1700000,1.1700000,1.1700000,-0.0051059
1.1750000,1.1750000,1.1750000,-0.0049738
1.1800000,1.1800000,1.1800000,-0.0048456
1.1850000,1.1850000,1.1850000,-0.0047213
1.1900000,1.1900000,1.1900000,-0.0046008
1.1950000,1.1950000,1.1950000,-0.0044838
1.2000000,1.2000000,1.2000000,-0.0043702
1.2050000,1.2050000,1.2050000,-0.0042601
1.2100000,1.2100000,1.2100000,-0.0041531
1.2150000,1.2150000,1.2150000,-0.0040493
1.2200000,1.2200000,1.2200000,-0.0039485
1.2250000,1.2250000,1.2250000,-0.0038507
1.2300000,1.2300000,1.2300000,-0.0037556
1.2350000,1.2350000,1.2350000,-0.0036633
1.2400000,1.2400000,1.2400000,-0.0035737
1.2450000,1.2450000,1.2450000,-0.0034866
1.2500000,1.2500000,1.2500000,-0.0034019
1.2550000,1.2550000,1.2550000,-0.0033197
1.2600000,1.2600000,1.2600000,-0.0032398
1.2650000,1.2650000,1.2650000,-0.0031621
1.2700000,1.2700000,1.2700000,-0.0030866
1.2750000,1.2750000,1.2750000,-0.0030132
1.2800000,1.2800000,1.2800000,-0.0029418
1.2850000,1.2850000,1.2850000,-0.0028724
1.2900000,1.2900000,1.2900000,-0.0028049
1.2950000,1.2950000,1.2950000,-0.0027393
1.3000000,1.3000000,1.3000000,-0.0026754
1.3050000,1.3050000,1.3050000,-0.0026133
1.3100000,1.3100000,1.3100000,-0.0025528
1.3150000,1.3150000,1.3150000,-0.0024940
1.3200000,1.3200000,1.3200000,-0.0024368
1.3250000,1.3250000,1.3250000,-0.0023811
1.3300000,1.3300000,1.3300000,-0.0023269
1.3350000,1.3350000,1.3350000,-0.0022741
1.3400000,1.3400000,1.3400000,-0.0022227
1.3450000,1.3450000,1.3450000,-0.0021727
1.3500000,1.3500000,1.3500000,-0.0021240
1.3550000,1.3550000,1.3550000,-0.0020765
1.3600000,1.3600000,1.3600000,-0.0020303
1.3650000,1.3650000,1.3650000,-0.0019853
1.3700000,1.3700000,1.3700000,-0.0019414
1.3750000,1.3750000,1.3750000,-0.0018987
1.3800000,1.3800000,1.3800000,-0.0018571
1.3850000,1.3850000,1.3850000,-0.0018165
1.3900000,1.3900000,1.3900000,-0.0017770
1.3950000,1.3950000,1.3950000,-0.0017385
1.4000000,1.4000000,1.4000000,-0.0017009
1.4050000,1.4050000,1.4050000,-0.0016643
1.4100000,1.4100000,1.4100000,-0.0016286
1.4150000,1.4150000,1.4150000,-0.0015938
1.4200000,1.4200000,1.4200000,-0.0015599
1.4250000,1.4250000,1.4250000,-0.0015268
1.4300000,1.4300000,1.4300000,-0.0014945
1.4350000,1.4350000,1.4350000,-0.0014630
1.4400000,1.4400000,1.4400000,-0.0014323
1.4450000,1.4450000,1.4450000,-0.0014024
1.4500000,1.4500000,1.4500000,-0.0013731
1.4550000,1.4550000,1.4550000,-0.0013446
1.4600000,1.4600000,1.4600000,-0.0013168
1.4650000,1.4650000,1.4650000,-0.0012896
1.4700000,1.4700000,1.4700000,-0.0012631
1.4750000,1.4750000,1.4750000,-0.0012373
1.4800000,1.4800000,1.4800000,-0.0012120
1.4850000,1.4850000,1.4850000,-0.0011874
1.4900000,1.4900000,1.4900000,-0.0011633
1.4950000,1.4950000,1.4950000,-0.0011398
1.5000000,1.5000000,1.5000000,-0.0011169
1.5050000,1.5050000,1.5050000,-0.0010945
1.5100000,1.5100000,1.5100000,-0.0010726
1.5150000,1.5150000,1.5150000,-0.0010512
1.5200000,1.5200000,1.5200000,-0.0010303
1.5250000,1.5250000,1.5250000,-0.0010099
1.5300000,1.5300000,1.5300000,-0.0009900
1.5350000,1.5350000,1.5350000,-0.0009705
1.5400000,1.5400000,1.5400000,-0.0009515
1.5450000,1.5450000,1.5450000,-0.0009329
1.5500000,1.5500000,1.5500000,-0.0009148
1.5550000,1.5550000,1.5550000,-0.0008970
1.5600000,1.5600000,1.5600000,-0.0008797
1.5650000,1.5650000,1.5650000,-0.0008627
1.5700000,1.5700000,1.5700000,-0.0008461
1.5750000,1.5750000,1.5750000,-0.0008299
1.5800000,1.5800000,1.5800000,-0.0008141
1.5850000,1.5850000,1.5850000,-0.0007986
1.5900000,1.5900000,1.5900000,-0.0007835
1.5950000,1.5950000,1.5950000,-0.0007686
