# r[nm],d[nm],daligned[nm],UWater(d)[kj/mol]
0.0075104,0.0075104,-0.0037174,123610.7245000
0.0175104,0.0175104,0.0062826,92455.8961300
0.0275104,0.0275104,0.0162826,66016.5662600
0.0375104,0.0375104,0.0262826,44879.9413000
0.0475104,0.0475104,0.0362826,29937.3515100
0.0575104,0.0575104,0.0462826,19689.7792800
0.0675104,0.0675104,0.0562826,12647.1878800
0.0775104,0.0775104,0.0662826,7920.9374800
0.0875104,0.0875104,0.0762826,4970.6428220
0.0975104,0.0975104,0.0862826,3127.9277300
0.1075104,0.1075104,0.0962826,1974.1931670
0.1175104,0.1175104,0.1062826,1273.0872070
0.1275104,0.1275104,0.1162826,815.5268774
0.1375104,0.1375104,0.1262826,525.4144560
0.1475104,0.1475104,0.1362826,340.6111158
0.1575104,0.1575104,0.1462826,222.3323053
0.1675104,0.1675104,0.1562826,146.2028403
0.1775104,0.1775104,0.1662826,96.6926039
0.1875104,0.1875104,0.1762826,63.8311854
0.1975104,0.1975104,0.1862826,41.4313960
0.2075104,0.2075104,0.1962826,25.9379029
0.2175104,0.2175104,0.2062826,15.1300647
0.2275104,0.2275104,0.2162826,7.4473269
0.2375104,0.2375104,0.2262826,1.9279660
0.2475104,0.2475104,0.2362826,-1.9723519
0.2575104,0.2575104,0.2462826,-4.6285775
0.2675104,0.2675104,0.2562826,-6.3406422
0.2775104,0.2775104,0.2662826,-7.3453935
0.2875104,0.2875104,0.2762826,-7.8293912
0.2975104,0.2975104,0.2862826,-7.9433933
0.3075104,0.3075104,0.2962826,-7.8080219
0.3175104,0.3175104,0.3062826,-7.5153487
0.3275104,0.3275104,0.3162826,-7.1318808
0.3375104,0.3375104,0.3262826,-6.7033795
0.3475104,0.3475104,0.3362826,-6.2600501
0.3575104,0.3575104,0.3462826,-5.8210483
0.3675104,0.3675104,0.3562826,-5.3979624
0.3775104,0.3775104,0.3662826,-4.9973306
0.3875104,0.3875104,0.3762826,-4.6223921
0.3975104,0.3975104,0.3862826,-4.2742764
0.4075104,0.4075104,0.3962826,-3.9527991
0.4175104,0.4175104,0.4062826,-3.6569883
0.4275104,0.4275104,0.4162826,-3.3854289
0.4375104,0.4375104,0.4262826,-3.1364856
0.4475104,0.4475104,0.4362826,-2.9084454
0.4575104,0.4575104,0.4462826,-2.6996057
0.4675104,0.4675104,0.4562826,-2.5083272
0.4775104,0.4775104,0.4662826,-2.3330643
0.4875104,0.4875104,0.4762826,-2.1723797
0.4975104,0.4975104,0.4862826,-2.0249497
0.5075104,0.5075104,0.4962826,-1.8895638
0.5175104,0.5175104,0.5062826,-1.7651198
0.5275104,0.5275104,0.5162826,-1.6506178
0.5375104,0.5375104,0.5262826,-1.5451530
0.5475104,0.5475104,0.5362826,-1.4479074
0.5575104,0.5575104,0.5462826,-1.3581425
0.5675104,0.5675104,0.5562826,-1.2751918
0.5775104,0.5775104,0.5662826,-1.1984537
0.5875104,0.5875104,0.5762826,-1.1273854
0.5975104,0.5975104,0.5862826,-1.0614966
0.6075104,0.6075104,0.5962826,-1.0003444
0.6175104,0.6175104,0.6062826,-0.9435286
0.6275104,0.6275104,0.6162826,-0.8906867
0.6375104,0.6375104,0.6262826,-0.8414909
0.6475104,0.6475104,0.6362826,-0.7956436
0.6575104,0.6575104,0.6462826,-0.7528753
0.6675104,0.6675104,0.6562826,-0.7129409
0.6775104,0.6775104,0.6662826,-0.6756177
0.6875104,0.6875104,0.6762826,-0.6407031
0.6975104,0.6975104,0.6862826,-0.6080123
0.7075104,0.7075104,0.6962826,-0.5773770
0.7175104,0.7175104,0.7062826,-0.5486434
0.7275104,0.7275104,0.7162826,-0.5216711
0.7375104,0.7375104,0.7262826,-0.4963315
0.7475104,0.7475104,0.7362826,-0.4725069
0.7575104,0.7575104,0.7462826,-0.4500894
0.7675104,0.7675104,0.7562826,-0.4289800
0.7775104,0.7775104,0.7662826,-0.4090876
0.7875104,0.7875104,0.7762826,-0.3903286
0.7975104,0.7975104,0.7862826,-0.3726261
0.8075104,0.8075104,0.7962826,-0.3559090
0.8175104,0.8175104,0.8062826,-0.3401121
0.8275104,0.8275104,0.8162826,-0.3251748
0.8375104,0.8375104,0.8262826,-0.3110414
0.8475104,0.8475104,0.8362826,-0.2976604
0.8575104,0.8575104,0.8462826,-0.2849840
0.8675104,0.8675104,0.8562826,-0.2729679
0.8775104,0.8775104,0.8662826,-0.2615713
0.8875104,0.8875104,0.8762826,-0.2507559
0.8975104,0.8975104,0.8862826,-0.2404865
0.9075104,0.9075104,0.8962826,-0.2307304
0.9175104,0.9175104,0.9062826,-0.2214568
0.9275104,0.9275104,0.9162826,-0.2126374
0.9375104,0.9375104,0.9262826,-0.2042458
0.9475104,0.9475104,0.9362826,-0.1962572
0.9575104,0.9575104,0.9462826,-0.1886487
0.9675104,0.9675104,0.9562826,-0.1813986
0.9775104,0.9775104,0.9662826,-0.1744870
0.9875104,0.9875104,0.9762826,-0.1678951
0.9975104,0.9975104,0.9862826,-0.1616052
1.0075104,1.0075104,0.9962826,-0.1556010
1.0175104,1.0175104,1.0062826,-0.1498670
1.0275104,1.0275104,1.0162826,-0.1443889
1.0375104,1.0375104,1.0262826,-0.1391530
1.0475104,1.0475104,1.0362826,-0.1341467
1.0575104,1.0575104,1.0462826,-0.1293580
1.0675104,1.0675104,1.0562826,-0.1247758
1.0775104,1.0775104,1.0662826,-0.1203894
1.0875104,1.0875104,1.0762826,-0.1161890
1.0975104,1.0975104,1.0862826,-0.1121652
1.1075104,1.1075104,1.0962826,-0.1083093
1.1175104,1.1175104,1.1062826,-0.1046129
1.1275104,1.1275104,1.1162826,-0.1010683
1.1375104,1.1375104,1.1262826,-0.0976681
1.1475104,1.1475104,1.1362826,-0.0944054
1.1575104,1.1575104,1.1462826,-0.0912735
1.1675104,1.1675104,1.1562826,-0.0882664
1.1775104,1.1775104,1.1662826,-0.0853780
1.1875104,1.1875104,1.1762826,-0.0826030
1.1975104,1.1975104,1.1862826,-0.0799360
1.2075104,1.2075104,1.1962826,-0.0773721
1.2175104,1.2175104,1.2062826,-0.0749066
1.2275104,1.2275104,1.2162826,-0.0725351
1.2375104,1.2375104,1.2262826,-0.0702534
1.2475104,1.2475104,1.2362826,-0.0680574
1.2575104,1.2575104,1.2462826,-0.0659433
1.2675104,1.2675104,1.2562826,-0.0639076
1.2775104,1.2775104,1.2662826,-0.0619469
1.2875104,1.2875104,1.2762826,-0.0600579
1.2975104,1.2975104,1.2862826,-0.0582375
1.3075104,1.3075104,1.2962826,-0.0564829
1.3175104,1.3175104,1.3062826,-0.0547912
1.3275104,1.3275104,1.3162826,-0.0531597
1.3375104,1.3375104,1.3262826,-0.0515861
1.3475104,1.3475104,1.3362826,-0.0500677
1.3575104,1.3575104,1.3462826,-0.0486025
1.3675104,1.3675104,1.3562826,-0.0471882
1.3775104,1.3775104,1.3662826,-0.0458228
1.3875104,1.3875104,1.3762826,-0.0445042
1.3975104,1.3975104,1.3862826,-0.0432306
1.4075104,1.4075104,1.3962826,-0.0420003
1.4175104,1.4175104,1.4062826,-0.0408114
1.4275104,1.4275104,1.4162826,-0.0396623
1.4375104,1.4375104,1.4262826,-0.0385516
1.4475104,1.4475104,1.4362826,-0.0374777
1.4575104,1.4575104,1.4462826,-0.0364391
1.4675104,1.4675104,1.4562826,-0.0354346
1.4775104,1.4775104,1.4662826,-0.0344628
1.4875104,1.4875104,1.4762826,-0.0335225
1.4975104,1.4975104,1.4862826,-0.0326125
1.5075104,1.5075104,1.4962826,-0.0317317
1.5175104,1.5175104,1.5062826,-0.0308789
1.5275104,1.5275104,1.5162826,-0.0300532
1.5375104,1.5375104,1.5262826,-0.0292535
1.5475104,1.5475104,1.5362826,-0.0284788
1.5575104,1.5575104,1.5462826,-0.0277284
1.5675104,1.5675104,1.5562826,-0.0270012
1.5775104,1.5775104,1.5662826,-0.0262965
1.5875104,1.5875104,1.5762826,-0.0256135
1.5975104,1.5975104,1.5862826,-0.0249513
