# r[nm],d[nm],daligned[nm],UwaterUCD(d)[kj/mol]
0.7500000,0.0000000,-0.0138226,155220.9929115
0.7600000,0.0100000,-0.0038226,119483.1469868
0.7700000,0.0200000,0.0061774,88666.4980626
0.7800000,0.0300000,0.0161774,63873.0238080
0.7900000,0.0400000,0.0261774,44913.9069433
0.8000000,0.0500000,0.0361774,31056.8532310
0.8100000,0.0600000,0.0461774,21030.6172133
0.8200000,0.0700000,0.0561774,13932.9952809
0.8300000,0.0800000,0.0661774,8834.4846264
0.8400000,0.0900000,0.0761774,5623.2757151
0.8500000,0.1000000,0.0861774,3579.0127614
0.8600000,0.1100000,0.0961774,2271.4385274
0.8700000,0.1200000,0.1061774,1457.8790885
0.8800000,0.1300000,0.1161774,919.0509240
0.8900000,0.1400000,0.1261774,571.9432775
0.9000000,0.1500000,0.1361774,347.3247561
0.9100000,0.1600000,0.1461774,201.9394551
0.9200000,0.1700000,0.1561774,107.4023868
0.9300000,0.1800000,0.1661774,45.5162733
0.9400000,0.1900000,0.1761774,4.8327052
0.9500000,0.2000000,0.1861774,-22.0413786
0.9600000,0.2100000,0.1961774,-39.8843476
0.9700000,0.2200000,0.2061774,-51.7865531
0.9800000,0.2300000,0.2161774,-59.7352355
0.9900000,0.2400000,0.2261774,-65.2689810
1.0000000,0.2500000,0.2361774,-70.4741006
1.0100000,0.2600000,0.2461774,-75.2130397
1.0200000,0.2700000,0.2561774,-78.5650605
1.0300000,0.2800000,0.2661774,-80.9534996
1.0400000,0.2900000,0.2761774,-82.6922664
1.0500000,0.3000000,0.2861774,-83.8679103
1.0600000,0.3100000,0.2961774,-84.7363528
1.0700000,0.3200000,0.3061774,-85.2467369
1.0800000,0.3300000,0.3161774,-85.0763968
1.0900000,0.3400000,0.3261774,-84.2460785
1.1000000,0.3500000,0.3361774,-83.0997323
1.1100000,0.3600000,0.3461774,-82.0738037
1.1200000,0.3700000,0.3561774,-81.6480661
1.1300000,0.3800000,0.3661774,-82.4921583
1.1400000,0.3900000,0.3761774,-84.5363299
1.1500000,0.4000000,0.3861774,-86.1912691
1.1600000,0.4100000,0.3961774,-86.3698868
1.1700000,0.4200000,0.4061774,-85.2769878
1.1800000,0.4300000,0.4161774,-85.1408433
1.1900000,0.4400000,0.4261774,-89.6689322
1.2000000,0.4500000,0.4361774,-92.5897077
1.2100000,0.4600000,0.4461774,-93.6550490
1.2200000,0.4700000,0.4561774,-93.3114980
1.2300000,0.4800000,0.4661774,-92.7208020
1.2400000,0.4900000,0.4761774,-99.3948251
1.2500000,0.5000000,0.4861774,-102.1714508
1.2600000,0.5100000,0.4961774,-101.0521897
1.2700000,0.5200000,0.5061774,-98.1722044
1.2800000,0.5300000,0.5161774,-94.6026147
1.2900000,0.5400000,0.5261774,-90.6611149
1.3000000,0.5500000,0.5361774,-86.5273267
1.3100000,0.5600000,0.5461774,-82.3779607
1.3200000,0.5700000,0.5561774,-78.3432789
1.3300000,0.5800000,0.5661774,-74.4997418
1.3400000,0.5900000,0.5761774,-70.8838877
1.3500000,0.6000000,0.5861774,-67.5071117
1.3600000,0.6100000,0.5961774,-64.3663898
1.3700000,0.6200000,0.6061774,-61.4511692
1.3800000,0.6300000,0.6161774,-58.7475426
1.3900000,0.6400000,0.6261774,-56.2406611
1.4000000,0.6500000,0.6361774,-53.9160372
1.4100000,0.6600000,0.6461774,-51.7601562
1.4200000,0.6700000,0.6561774,-49.7606595
1.4300000,0.6800000,0.6661774,-47.9062742
1.4400000,0.6900000,0.6761774,-46.1866120
1.4500000,0.7000000,0.6861774,-44.5919308
1.4600000,0.7100000,0.6961774,-43.1129241
1.4700000,0.7200000,0.7061774,-41.7405823
1.4800000,0.7300000,0.7161774,-40.4661395
1.4900000,0.7400000,0.7261774,-39.2810977
1.5000000,0.7500000,0.7361774,-38.1773026
1.5100000,0.7600000,0.7461774,-37.1470399
1.5200000,0.7700000,0.7561774,-36.1831259
1.5300000,0.7800000,0.7661774,-35.2789724
1.5400000,0.7900000,0.7761774,-34.4286199
1.5500000,0.8000000,0.7861774,-33.6267398
1.5600000,0.8100000,0.7961774,-32.8686091
1.5700000,0.8200000,0.8061774,-32.1500687
1.5800000,0.8300000,0.8161774,-31.4674702
1.5900000,0.8400000,0.8261774,-30.8176187
1.6000000,0.8500000,0.8361774,-30.1977163
1.6100000,0.8600000,0.8461774,-29.6053084
1.6200000,0.8700000,0.8561774,-29.0382354
1.6300000,0.8800000,0.8661774,-28.4945901
1.6400000,0.8900000,0.8761774,-27.9726805
1.6500000,0.9000000,0.8861774,-27.4709983
1.6600000,0.9100000,0.8961774,-26.9881922
1.6700000,0.9200000,0.9061774,-26.5230459
1.6800000,0.9300000,0.9161774,-26.0744587
1.6900000,0.9400000,0.9261774,-25.6414307
1.7000000,0.9500000,0.9361774,-25.2230493
1.7100000,0.9600000,0.9461774,-24.8184786
1.7200000,0.9700000,0.9561774,-24.4269502
1.7300000,0.9800000,0.9661774,-24.0477557
1.7400000,0.9900000,0.9761774,-23.6802399
1.7500000,1.0000000,0.9861774,-23.3237957
1.7600000,1.0100000,0.9961774,-22.9778591
1.7700000,1.0200000,1.0061774,-22.6419053
1.7800000,1.0300000,1.0161774,-22.3154451
1.7900000,1.0400000,1.0261774,-21.9980216
1.8000000,1.0500000,1.0361774,-21.6892078
1.8100000,1.0600000,1.0461774,-21.3886040
1.8200000,1.0700000,1.0561774,-21.0958357
1.8300000,1.0800000,1.0661774,-20.8105514
1.8400000,1.0900000,1.0761774,-20.5324213
1.8500000,1.1000000,1.0861774,-20.2611351
1.8600000,1.1100000,1.0961774,-19.9964012
1.8700000,1.1200000,1.1061774,-19.7379450
1.8800000,1.1300000,1.1161774,-19.4855076
1.8900000,1.1400000,1.1261774,-19.2388451
1.9000000,1.1500000,1.1361774,-18.9977271
1.9100000,1.1600000,1.1461774,-18.7619363
1.9200000,1.1700000,1.1561774,-18.5312669
1.9300000,1.1800000,1.1661774,-18.3055247
1.9400000,1.1900000,1.1761774,-18.0845256
1.9500000,1.2000000,1.1861774,-17.8680953
1.9600000,1.2100000,1.1961774,-17.6560686
1.9700000,1.2200000,1.2061774,-17.4482888
1.9800000,1.2300000,1.2161774,-17.2446072
1.9900000,1.2400000,1.2261774,-17.0448825
2.0000000,1.2500000,1.2361774,-16.8489805
2.0100000,1.2600000,1.2461774,-16.6567736
2.0200000,1.2700000,1.2561774,-16.4681402
2.0300000,1.2800000,1.2661774,-16.2829647
2.0400000,1.2900000,1.2761774,-16.1011368
2.0500000,1.3000000,1.2861774,-15.9225513
2.0600000,1.3100000,1.2961774,-15.7471082
2.0700000,1.3200000,1.3061774,-15.5747116
2.0800000,1.3300000,1.3161774,-15.4052701
2.0900000,1.3400000,1.3261774,-15.2386965
2.1000000,1.3500000,1.3361774,-15.0749071
2.1100000,1.3600000,1.3461774,-14.9138221
2.1200000,1.3700000,1.3561774,-14.7553650
2.1300000,1.3800000,1.3661774,-14.5994624
2.1400000,1.3900000,1.3761774,-14.4460444
2.1500000,1.4000000,1.3861774,-14.2950434
2.1600000,1.4100000,1.3961774,-14.1463950
2.1700000,1.4200000,1.4061774,-14.0000373
2.1800000,1.4300000,1.4161774,-13.8559107
2.1900000,1.4400000,1.4261774,-13.7139582
2.2000000,1.4500000,1.4361774,-13.5741247
2.2100000,1.4600000,1.4461774,-13.4363576
2.2200000,1.4700000,1.4561774,-13.3006060
2.2300000,1.4800000,1.4661774,-13.1668211
2.2400000,1.4900000,1.4761774,-13.0349558
2.2500000,1.5000000,1.4861774,-12.9049648
2.2600000,1.5100000,1.4961774,-12.7768044
2.2700000,1.5200000,1.5061774,-12.6504325
2.2800000,1.5300000,1.5161774,-12.5258086
2.2900000,1.5400000,1.5261774,-12.4028933
2.3000000,1.5500000,1.5361774,-12.2816490
2.3100000,1.5600000,1.5461774,-12.1620392
2.3200000,1.5700000,1.5561774,-12.0440284
2.3300000,1.5800000,1.5661774,-11.9275828
2.3400000,1.5900000,1.5761774,-11.8126692
