# r[nm],d[nm],daligned[nm],UwaterUCD(d)[kj/mol]
0.0000000,0.0000000,0.0000000,1000000000000.0000000
0.0050000,0.0050000,0.0050000,1000000000000.0000000
0.0100000,0.0100000,0.0100000,1000000000000.0000000
0.0150000,0.0150000,0.0150000,1000000000000.0000000
0.0200000,0.0200000,0.0200000,1000000000000.0000000
0.0250000,0.0250000,0.0250000,1000000000000.0000000
0.0300000,0.0300000,0.0300000,1000000000000.0000000
0.0350000,0.0350000,0.0350000,895395164713.8260498
0.0400000,0.0400000,0.0400000,180957973615.8969727
0.0450000,0.0450000,0.0450000,44145615229.4122925
0.0500000,0.0500000,0.0500000,12494270625.2863884
0.0550000,0.0550000,0.0550000,3987988002.7883677
0.0600000,0.0600000,0.0600000,1405883327.5649111
0.0650000,0.0650000,0.0650000,538816500.2531905
0.0700000,0.0700000,0.0700000,221769160.8422996
0.0750000,0.0750000,0.0750000,97014359.9488507
0.0800000,0.0800000,0.0800000,44754591.7721260
0.0850000,0.0850000,0.0850000,21636271.8515274
0.0900000,0.0900000,0.0900000,10903577.0446923
0.0950000,0.0950000,0.0950000,5702178.4901161
0.1000000,0.1000000,0.1000000,3082630.8450964
0.1050000,0.1050000,0.1050000,1716751.3346778
0.1100000,0.1100000,0.1100000,982263.9293324
0.1150000,0.1150000,0.1150000,575955.4027963
0.1200000,0.1200000,0.1200000,345311.8504575
0.1250000,0.1250000,0.1250000,211255.5479783
0.1300000,0.1300000,0.1300000,131630.2835584
0.1350000,0.1350000,0.1350000,83381.9834382
0.1400000,0.1400000,0.1400000,53603.1192722
0.1450000,0.1450000,0.1450000,34908.2685692
0.1500000,0.1500000,0.1500000,22985.6711227
0.1550000,0.1550000,0.1550000,15270.4770084
0.1600000,0.1600000,0.1600000,10210.1566388
0.1650000,0.1650000,0.1650000,6849.5322124
0.1700000,0.1700000,0.1700000,4591.9292586
0.1750000,0.1750000,0.1750000,3059.2683803
0.1800000,0.1800000,0.1800000,2008.7542585
0.1850000,0.1850000,0.1850000,1843.2079491
0.1900000,0.1900000,0.1900000,1326.8868778
0.1950000,0.1950000,0.1950000,961.9145313
0.2000000,0.2000000,0.2000000,701.8426023
0.2050000,0.2050000,0.2050000,515.1107893
0.2100000,0.2100000,0.2100000,380.0513529
0.2150000,0.2150000,0.2150000,281.6555933
0.2200000,0.2200000,0.2200000,209.4769781
0.2250000,0.2250000,0.2250000,156.2086277
0.2300000,0.2300000,0.2300000,116.6843859
0.2350000,0.2350000,0.2350000,87.2183892
0.2400000,0.2400000,0.2400000,65.1661838
0.2450000,0.2450000,0.2450000,48.6093691
0.2500000,0.2500000,0.2500000,36.1362433
0.2550000,0.2550000,0.2550000,26.7042241
0.2600000,0.2600000,0.2600000,19.5484947
0.2650000,0.2650000,0.2650000,14.1093891
0.2700000,0.2700000,0.2700000,9.9745178
0.2750000,0.2750000,0.2750000,6.8368245
0.2800000,0.2800000,0.2800000,4.4653000
0.2850000,0.2850000,0.2850000,2.6838172
0.2900000,0.2900000,0.2900000,1.3563154
0.2950000,0.2950000,0.2950000,0.3770120
0.3000000,0.3000000,0.3000000,-0.3362672
0.3050000,0.3050000,0.3050000,-0.8470807
0.3100000,0.3100000,0.3100000,-1.2043608
0.3150000,0.3150000,0.3150000,-1.4456459
0.3200000,0.3200000,0.3200000,-1.5996675
0.3250000,0.3250000,0.3250000,-1.6883880
0.3300000,0.3300000,0.3300000,-1.7285820
0.3350000,0.3350000,0.3350000,-1.7330545
0.3400000,0.3400000,0.3400000,-1.7115719
0.3450000,0.3450000,0.3450000,-1.6715747
0.3500000,0.3500000,0.3500000,-1.6187198
0.3550000,0.3550000,0.3550000,-1.5572962
0.3600000,0.3600000,0.3600000,-1.4905421
0.3650000,0.3650000,0.3650000,-1.4208886
0.3700000,0.3700000,0.3700000,-1.3501459
0.3750000,0.3750000,0.3750000,-1.2796480
0.3800000,0.3800000,0.3800000,-1.2103624
0.3850000,0.3850000,0.3850000,-1.1429764
0.3900000,0.3900000,0.3900000,-1.0779629
0.3950000,0.3950000,0.3950000,-1.0156317
0.4000000,0.4000000,0.4000000,-0.9561685
0.4050000,0.4050000,0.4050000,-0.8996664
0.4100000,0.4100000,0.4100000,-0.8461489
0.4150000,0.4150000,0.4150000,-0.7955885
0.4200000,0.4200000,0.4200000,-0.7479207
0.4250000,0.4250000,0.4250000,-0.7030551
0.4300000,0.4300000,0.4300000,-0.6608835
0.4350000,0.4350000,0.4350000,-0.6212867
0.4400000,0.4400000,0.4400000,-0.5841385
0.4450000,0.4450000,0.4450000,-0.5493105
0.4500000,0.4500000,0.4500000,-0.5166737
0.4550000,0.4550000,0.4550000,-0.4861012
0.4600000,0.4600000,0.4600000,-0.4574694
0.4650000,0.4650000,0.4650000,-0.4306590
0.4700000,0.4700000,0.4700000,-0.4055557
0.4750000,0.4750000,0.4750000,-0.3820505
0.4800000,0.4800000,0.4800000,-0.3600403
0.4850000,0.4850000,0.4850000,-0.3394272
0.4900000,0.4900000,0.4900000,-0.3201195
0.4950000,0.4950000,0.4950000,-0.3020307
0.5000000,0.5000000,0.5000000,-0.2850798
0.5050000,0.5050000,0.5050000,-0.2691908
0.5100000,0.5100000,0.5100000,-0.2542929
0.5150000,0.5150000,0.5150000,-0.2403199
0.5200000,0.5200000,0.5200000,-0.2272100
0.5250000,0.5250000,0.5250000,-0.2149056
0.5300000,0.5300000,0.5300000,-0.2033530
0.5350000,0.5350000,0.5350000,-0.1925023
0.5400000,0.5400000,0.5400000,-0.1823069
0.5450000,0.5450000,0.5450000,-0.1727235
0.5500000,0.5500000,0.5500000,-0.1637119
0.5550000,0.5550000,0.5550000,-0.1552345
0.5600000,0.5600000,0.5600000,-0.1472565
0.5650000,0.5650000,0.5650000,-0.1397454
0.5700000,0.5700000,0.5700000,-0.1326711
0.5750000,0.5750000,0.5750000,-0.1260053
0.5800000,0.5800000,0.5800000,-0.1197219
0.5850000,0.5850000,0.5850000,-0.1137966
0.5900000,0.5900000,0.5900000,-0.1082067
0.5950000,0.5950000,0.5950000,-0.1029310
0.6000000,0.6000000,0.6000000,-0.0979499
0.6050000,0.6050000,0.6050000,-0.0932450
0.6100000,0.6100000,0.6100000,-0.0887992
0.6150000,0.6150000,0.6150000,-0.0845966
0.6200000,0.6200000,0.6200000,-0.0806223
0.6250000,0.6250000,0.6250000,-0.0768624
0.6300000,0.6300000,0.6300000,-0.0733040
0.6350000,0.6350000,0.6350000,-0.0699349
0.6400000,0.6400000,0.6400000,-0.0667439
0.6450000,0.6450000,0.6450000,-0.0637203
0.6500000,0.6500000,0.6500000,-0.0608544
0.6550000,0.6550000,0.6550000,-0.0581369
0.6600000,0.6600000,0.6600000,-0.0555591
0.6650000,0.6650000,0.6650000,-0.0531129
0.6700000,0.6700000,0.6700000,-0.0507909
0.6750000,0.6750000,0.6750000,-0.0485859
0.6800000,0.6800000,0.6800000,-0.0464912
0.6850000,0.6850000,0.6850000,-0.0445007
0.6900000,0.6900000,0.6900000,-0.0426085
0.6950000,0.6950000,0.6950000,-0.0408091
0.7000000,0.7000000,0.7000000,-0.0390975
0.7050000,0.7050000,0.7050000,-0.0374687
0.7100000,0.7100000,0.7100000,-0.0359182
0.7150000,0.7150000,0.7150000,-0.0344418
0.7200000,0.7200000,0.7200000,-0.0330356
0.7250000,0.7250000,0.7250000,-0.0316956
0.7300000,0.7300000,0.7300000,-0.0304185
0.7350000,0.7350000,0.7350000,-0.0292008
0.7400000,0.7400000,0.7400000,-0.0280395
0.7450000,0.7450000,0.7450000,-0.0269315
0.7500000,0.7500000,0.7500000,-0.0258742
0.7550000,0.7550000,0.7550000,-0.0248649
0.7600000,0.7600000,0.7600000,-0.0239011
0.7650000,0.7650000,0.7650000,-0.0229805
0.7700000,0.7700000,0.7700000,-0.0221009
0.7750000,0.7750000,0.7750000,-0.0212603
0.7800000,0.7800000,0.7800000,-0.0204567
0.7850000,0.7850000,0.7850000,-0.0196883
0.7900000,0.7900000,0.7900000,-0.0189532
0.7950000,0.7950000,0.7950000,-0.0182499
0.8000000,0.8000000,0.8000000,-0.0175768
0.8050000,0.8050000,0.8050000,-0.0169325
0.8100000,0.8100000,0.8100000,-0.0163155
0.8150000,0.8150000,0.8150000,-0.0157246
0.8200000,0.8200000,0.8200000,-0.0151584
0.8250000,0.8250000,0.8250000,-0.0146158
0.8300000,0.8300000,0.8300000,-0.0140958
0.8350000,0.8350000,0.8350000,-0.0135971
0.8400000,0.8400000,0.8400000,-0.0131190
0.8450000,0.8450000,0.8450000,-0.0126602
0.8500000,0.8500000,0.8500000,-0.0122201
0.8550000,0.8550000,0.8550000,-0.0117977
0.8600000,0.8600000,0.8600000,-0.0113922
0.8650000,0.8650000,0.8650000,-0.0110029
0.8700000,0.8700000,0.8700000,-0.0106290
0.8750000,0.8750000,0.8750000,-0.0102698
0.8800000,0.8800000,0.8800000,-0.0099247
0.8850000,0.8850000,0.8850000,-0.0095931
0.8900000,0.8900000,0.8900000,-0.0092742
0.8950000,0.8950000,0.8950000,-0.0089677
0.9000000,0.9000000,0.9000000,-0.0086729
0.9050000,0.9050000,0.9050000,-0.0083894
0.9100000,0.9100000,0.9100000,-0.0081166
0.9150000,0.9150000,0.9150000,-0.0078541
0.9200000,0.9200000,0.9200000,-0.0076014
0.9250000,0.9250000,0.9250000,-0.0073582
0.9300000,0.9300000,0.9300000,-0.0071239
0.9350000,0.9350000,0.9350000,-0.0068984
0.9400000,0.9400000,0.9400000,-0.0066811
0.9450000,0.9450000,0.9450000,-0.0064718
0.9500000,0.9500000,0.9500000,-0.0062700
0.9550000,0.9550000,0.9550000,-0.0060756
0.9600000,0.9600000,0.9600000,-0.0058881
0.9650000,0.9650000,0.9650000,-0.0057074
0.9700000,0.9700000,0.9700000,-0.0055331
0.9750000,0.9750000,0.9750000,-0.0053650
0.9800000,0.9800000,0.9800000,-0.0052028
0.9850000,0.9850000,0.9850000,-0.0050463
0.9900000,0.9900000,0.9900000,-0.0048952
0.9950000,0.9950000,0.9950000,-0.0047495
1.0000000,1.0000000,1.0000000,-0.0046087
1.0050000,1.0050000,1.0050000,-0.0044728
1.0100000,1.0100000,1.0100000,-0.0043415
1.0150000,1.0150000,1.0150000,-0.0042147
1.0200000,1.0200000,1.0200000,-0.0040922
1.0250000,1.0250000,1.0250000,-0.0039739
1.0300000,1.0300000,1.0300000,-0.0038595
1.0350000,1.0350000,1.0350000,-0.0037489
1.0400000,1.0400000,1.0400000,-0.0036420
1.0450000,1.0450000,1.0450000,-0.0035387
1.0500000,1.0500000,1.0500000,-0.0034387
1.0550000,1.0550000,1.0550000,-0.0033421
1.0600000,1.0600000,1.0600000,-0.0032485
1.0650000,1.0650000,1.0650000,-0.0031581
1.0700000,1.0700000,1.0700000,-0.0030705
1.0750000,1.0750000,1.0750000,-0.0029858
1.0800000,1.0800000,1.0800000,-0.0029038
1.0850000,1.0850000,1.0850000,-0.0028244
1.0900000,1.0900000,1.0900000,-0.0027475
1.0950000,1.0950000,1.0950000,-0.0026730
1.1000000,1.1000000,1.1000000,-0.0026009
1.1050000,1.1050000,1.1050000,-0.0025311
1.1100000,1.1100000,1.1100000,-0.0024634
1.1150000,1.1150000,1.1150000,-0.0023978
1.1200000,1.1200000,1.1200000,-0.0023343
1.1250000,1.1250000,1.1250000,-0.0022727
1.1300000,1.1300000,1.1300000,-0.0022130
1.1350000,1.1350000,1.1350000,-0.0021551
1.1400000,1.1400000,1.1400000,-0.0020990
1.1450000,1.1450000,1.1450000,-0.0020446
1.1500000,1.1500000,1.1500000,-0.0019918
1.1550000,1.1550000,1.1550000,-0.0019406
1.1600000,1.1600000,1.1600000,-0.0018909
1.1650000,1.1650000,1.1650000,-0.0018427
1.1700000,1.1700000,1.1700000,-0.0017960
1.1750000,1.1750000,1.1750000,-0.0017506
1.1800000,1.1800000,1.1800000,-0.0017065
1.1850000,1.1850000,1.1850000,-0.0016638
1.1900000,1.1900000,1.1900000,-0.0016222
1.1950000,1.1950000,1.1950000,-0.0015819
1.2000000,1.2000000,1.2000000,-0.0015428
1.2050000,1.2050000,1.2050000,-0.0015047
1.2100000,1.2100000,1.2100000,-0.0014678
1.2150000,1.2150000,1.2150000,-0.0014319
1.2200000,1.2200000,1.2200000,-0.0013970
1.2250000,1.2250000,1.2250000,-0.0013632
1.2300000,1.2300000,1.2300000,-0.0013302
1.2350000,1.2350000,1.2350000,-0.0012982
1.2400000,1.2400000,1.2400000,-0.0012671
1.2450000,1.2450000,1.2450000,-0.0012369
1.2500000,1.2500000,1.2500000,-0.0012075
1.2550000,1.2550000,1.2550000,-0.0011789
1.2600000,1.2600000,1.2600000,-0.0011511
1.2650000,1.2650000,1.2650000,-0.0011240
1.2700000,1.2700000,1.2700000,-0.0010977
1.2750000,1.2750000,1.2750000,-0.0010721
1.2800000,1.2800000,1.2800000,-0.0010473
1.2850000,1.2850000,1.2850000,-0.0010230
1.2900000,1.2900000,1.2900000,-0.0009995
1.2950000,1.2950000,1.2950000,-0.0009765
1.3000000,1.3000000,1.3000000,-0.0009542
1.3050000,1.3050000,1.3050000,-0.0009325
1.3100000,1.3100000,1.3100000,-0.0009113
1.3150000,1.3150000,1.3150000,-0.0008907
1.3200000,1.3200000,1.3200000,-0.0008706
1.3250000,1.3250000,1.3250000,-0.0008511
1.3300000,1.3300000,1.3300000,-0.0008321
1.3350000,1.3350000,1.3350000,-0.0008135
1.3400000,1.3400000,1.3400000,-0.0007955
1.3450000,1.3450000,1.3450000,-0.0007779
1.3500000,1.3500000,1.3500000,-0.0007608
1.3550000,1.3550000,1.3550000,-0.0007441
1.3600000,1.3600000,1.3600000,-0.0007278
1.3650000,1.3650000,1.3650000,-0.0007119
1.3700000,1.3700000,1.3700000,-0.0006965
1.3750000,1.3750000,1.3750000,-0.0006814
1.3800000,1.3800000,1.3800000,-0.0006667
1.3850000,1.3850000,1.3850000,-0.0006524
1.3900000,1.3900000,1.3900000,-0.0006385
1.3950000,1.3950000,1.3950000,-0.0006248
1.4000000,1.4000000,1.4000000,-0.0006116
1.4050000,1.4050000,1.4050000,-0.0005986
1.4100000,1.4100000,1.4100000,-0.0005860
1.4150000,1.4150000,1.4150000,-0.0005737
1.4200000,1.4200000,1.4200000,-0.0005617
1.4250000,1.4250000,1.4250000,-0.0005499
1.4300000,1.4300000,1.4300000,-0.0005385
1.4350000,1.4350000,1.4350000,-0.0005273
1.4400000,1.4400000,1.4400000,-0.0005164
1.4450000,1.4450000,1.4450000,-0.0005058
1.4500000,1.4500000,1.4500000,-0.0004954
1.4550000,1.4550000,1.4550000,-0.0004853
1.4600000,1.4600000,1.4600000,-0.0004754
1.4650000,1.4650000,1.4650000,-0.0004657
1.4700000,1.4700000,1.4700000,-0.0004563
1.4750000,1.4750000,1.4750000,-0.0004471
1.4800000,1.4800000,1.4800000,-0.0004381
1.4850000,1.4850000,1.4850000,-0.0004293
1.4900000,1.4900000,1.4900000,-0.0004208
1.4950000,1.4950000,1.4950000,-0.0004124
1.5000000,1.5000000,1.5000000,-0.0004042
1.5050000,1.5050000,1.5050000,-0.0003962
1.5100000,1.5100000,1.5100000,-0.0003884
1.5150000,1.5150000,1.5150000,-0.0003808
1.5200000,1.5200000,1.5200000,-0.0003733
1.5250000,1.5250000,1.5250000,-0.0003660
1.5300000,1.5300000,1.5300000,-0.0003589
1.5350000,1.5350000,1.5350000,-0.0003519
1.5400000,1.5400000,1.5400000,-0.0003451
1.5450000,1.5450000,1.5450000,-0.0003385
1.5500000,1.5500000,1.5500000,-0.0003320
1.5550000,1.5550000,1.5550000,-0.0003256
1.5600000,1.5600000,1.5600000,-0.0003194
1.5650000,1.5650000,1.5650000,-0.0003133
1.5700000,1.5700000,1.5700000,-0.0003074
1.5750000,1.5750000,1.5750000,-0.0003016
1.5800000,1.5800000,1.5800000,-0.0002959
1.5850000,1.5850000,1.5850000,-0.0002903
1.5900000,1.5900000,1.5900000,-0.0002849
1.5950000,1.5950000,1.5950000,-0.0002796
