# r[nm],d[nm],daligned[nm],UWater(d)[kj/mol]
0.0000000,0.0000000,0.0000000,86786839.8372782
0.0050000,0.0050000,0.0050000,60606601.5226870
0.0100000,0.0100000,0.0100000,44482570.7586852
0.0150000,0.0150000,0.0150000,33393111.6847403
0.0200000,0.0200000,0.0200000,23254720.8806342
0.0250000,0.0250000,0.0250000,15971544.0592886
0.0300000,0.0300000,0.0300000,10861971.8169035
0.0350000,0.0350000,0.0350000,7341051.7570174
0.0400000,0.0400000,0.0400000,4946770.4324623
0.0450000,0.0450000,0.0450000,3333921.9652128
0.0500000,0.0500000,0.0500000,2254390.6610462
0.0550000,0.0550000,0.0550000,1534688.9770753
0.0600000,0.0600000,0.0600000,1055851.7125106
0.0650000,0.0650000,0.0650000,737393.3901642
0.0700000,0.0700000,0.0700000,525344.9552233
0.0750000,0.0750000,0.0750000,383714.8784320
0.0800000,0.0800000,0.0800000,288572.8165587
0.0850000,0.0850000,0.0850000,223981.3651601
0.0900000,0.0900000,0.0900000,172425.0579278
0.0950000,0.0950000,0.0950000,136388.3627996
0.1000000,0.1000000,0.1000000,110735.2141400
0.1050000,0.1050000,0.1050000,92090.6984938
0.1100000,0.1100000,0.1100000,78252.1030815
0.1150000,0.1150000,0.1150000,67794.1674893
0.1200000,0.1200000,0.1200000,59803.0641592
0.1250000,0.1250000,0.1250000,49811.8965044
0.1300000,0.1300000,0.1300000,40671.7094607
0.1350000,0.1350000,0.1350000,34187.2392452
0.1400000,0.1400000,0.1400000,29573.7669298
0.1450000,0.1450000,0.1450000,24306.7260042
0.1500000,0.1500000,0.1500000,18989.4791898
0.1550000,0.1550000,0.1550000,15004.5242256
0.1600000,0.1600000,0.1600000,11977.4272006
0.1650000,0.1650000,0.1650000,9647.8457903
0.1700000,0.1700000,0.1700000,7832.8615086
0.1750000,0.1750000,0.1750000,6402.5040241
0.1800000,0.1800000,0.1800000,5263.3336550
0.1850000,0.1850000,0.1850000,4314.2511331
0.1900000,0.1900000,0.1900000,3425.1712962
0.1950000,0.1950000,0.1950000,2733.7169457
0.2000000,0.2000000,0.2000000,2191.9392780
0.2050000,0.2050000,0.2050000,1787.4741998
0.2100000,0.2100000,0.2100000,1447.3657539
0.2150000,0.2150000,0.2150000,1175.7968553
0.2200000,0.2200000,0.2200000,957.8546869
0.2250000,0.2250000,0.2250000,782.1637852
0.2300000,0.2300000,0.2300000,639.9771027
0.2350000,0.2350000,0.2350000,524.4451564
0.2400000,0.2400000,0.2400000,429.3441297
0.2450000,0.2450000,0.2450000,350.2228487
0.2500000,0.2500000,0.2500000,285.7088648
0.2550000,0.2550000,0.2550000,233.5143862
0.2600000,0.2600000,0.2600000,191.2344708
0.2650000,0.2650000,0.2650000,156.8705889
0.2700000,0.2700000,0.2700000,128.6584284
0.2750000,0.2750000,0.2750000,105.0557384
0.2800000,0.2800000,0.2800000,85.3644233
0.2850000,0.2850000,0.2850000,69.2891044
0.2900000,0.2900000,0.2900000,56.3312426
0.2950000,0.2950000,0.2950000,45.9168738
0.3000000,0.3000000,0.3000000,37.5364017
0.3050000,0.3050000,0.3050000,30.7763608
0.3100000,0.3100000,0.3100000,25.3106729
0.3150000,0.3150000,0.3150000,20.8822755
0.3200000,0.3200000,0.3200000,17.2859490
0.3250000,0.3250000,0.3250000,14.3562212
0.3300000,0.3300000,0.3300000,11.9600414
0.3350000,0.3350000,0.3350000,9.9916566
0.3400000,0.3400000,0.3400000,8.3679132
0.3450000,0.3450000,0.3450000,7.0239139
0.3500000,0.3500000,0.3500000,5.9092339
0.3550000,0.3550000,0.3550000,4.9846132
0.3600000,0.3600000,0.3600000,4.2189537
0.3650000,0.3650000,0.3650000,3.5863580
0.3700000,0.3700000,0.3700000,3.0636381
0.3750000,0.3750000,0.3750000,2.6292928
0.3800000,0.3800000,0.3800000,2.2636190
0.3850000,0.3850000,0.3850000,1.9481780
0.3900000,0.3900000,0.3900000,1.6641003
0.3950000,0.3950000,0.3950000,1.3918019
0.4000000,0.4000000,0.4000000,1.1149254
0.4050000,0.4050000,0.4050000,0.8265760
0.4100000,0.4100000,0.4100000,0.5319866
0.4150000,0.4150000,0.4150000,0.2446404
0.4200000,0.4200000,0.4200000,-0.0208983
0.4250000,0.4250000,0.4250000,-0.2544066
0.4300000,0.4300000,0.4300000,-0.4516365
0.4350000,0.4350000,0.4350000,-0.6131984
0.4400000,0.4400000,0.4400000,-0.7426563
0.4450000,0.4450000,0.4450000,-0.8450600
0.4500000,0.4500000,0.4500000,-0.9259907
0.4550000,0.4550000,0.4550000,-0.9907664
0.4600000,0.4600000,0.4600000,-1.0437764
0.4650000,0.4650000,0.4650000,-1.0881150
0.4700000,0.4700000,0.4700000,-1.1255773
0.4750000,0.4750000,0.4750000,-1.1569483
0.4800000,0.4800000,0.4800000,-1.1823748
0.4850000,0.4850000,0.4850000,-1.2016238
0.4900000,0.4900000,0.4900000,-1.2142489
0.4950000,0.4950000,0.4950000,-1.2197718
0.5000000,0.5000000,0.5000000,-1.2179165
0.5050000,0.5050000,0.5050000,-1.2088411
0.5100000,0.5100000,0.5100000,-1.1932109
0.5150000,0.5150000,0.5150000,-1.1720075
0.5200000,0.5200000,0.5200000,-1.1462187
0.5250000,0.5250000,0.5250000,-1.1166533
0.5300000,0.5300000,0.5300000,-1.0839466
0.5350000,0.5350000,0.5350000,-1.0486551
0.5400000,0.5400000,0.5400000,-1.0113335
0.5450000,0.5450000,0.5450000,-0.9725545
0.5500000,0.5500000,0.5500000,-0.9328894
0.5550000,0.5550000,0.5550000,-0.8928756
0.5600000,0.5600000,0.5600000,-0.8529897
0.5650000,0.5650000,0.5650000,-0.8136317
0.5700000,0.5700000,0.5700000,-0.7751220
0.5750000,0.5750000,0.5750000,-0.7377044
0.5800000,0.5800000,0.5800000,-0.7015552
0.5850000,0.5850000,0.5850000,-0.6667937
0.5900000,0.5900000,0.5900000,-0.6334924
0.5950000,0.5950000,0.5950000,-0.6016867
0.6000000,0.6000000,0.6000000,-0.5713836
0.6050000,0.6050000,0.6050000,-0.5425681
0.6100000,0.6100000,0.6100000,-0.5152095
0.6150000,0.6150000,0.6150000,-0.4892655
0.6200000,0.6200000,0.6200000,-0.4646863
0.6250000,0.6250000,0.6250000,-0.4414166
0.6300000,0.6300000,0.6300000,-0.4193985
0.6350000,0.6350000,0.6350000,-0.3985726
0.6400000,0.6400000,0.6400000,-0.3788793
0.6450000,0.6450000,0.6450000,-0.3602598
0.6500000,0.6500000,0.6500000,-0.3426568
0.6550000,0.6550000,0.6550000,-0.3260145
0.6600000,0.6600000,0.6600000,-0.3102795
0.6650000,0.6650000,0.6650000,-0.2954005
0.6700000,0.6700000,0.6700000,-0.2813288
0.6750000,0.6750000,0.6750000,-0.2680178
0.6800000,0.6800000,0.6800000,-0.2554236
0.6850000,0.6850000,0.6850000,-0.2435047
0.6900000,0.6900000,0.6900000,-0.2322219
0.6950000,0.6950000,0.6950000,-0.2215380
0.7000000,0.7000000,0.7000000,-0.2114184
0.7050000,0.7050000,0.7050000,-0.2018302
0.7100000,0.7100000,0.7100000,-0.1927426
0.7150000,0.7150000,0.7150000,-0.1841267
0.7200000,0.7200000,0.7200000,-0.1759552
0.7250000,0.7250000,0.7250000,-0.1682027
0.7300000,0.7300000,0.7300000,-0.1608451
0.7350000,0.7350000,0.7350000,-0.1538600
0.7400000,0.7400000,0.7400000,-0.1472262
0.7450000,0.7450000,0.7450000,-0.1409239
0.7500000,0.7500000,0.7500000,-0.1349344
0.7550000,0.7550000,0.7550000,-0.1292403
0.7600000,0.7600000,0.7600000,-0.1238252
0.7650000,0.7650000,0.7650000,-0.1186736
0.7700000,0.7700000,0.7700000,-0.1137711
0.7750000,0.7750000,0.7750000,-0.1091040
0.7800000,0.7800000,0.7800000,-0.1046596
0.7850000,0.7850000,0.7850000,-0.1004257
0.7900000,0.7900000,0.7900000,-0.0963912
0.7950000,0.7950000,0.7950000,-0.0925453
0.8000000,0.8000000,0.8000000,-0.0888781
0.8050000,0.8050000,0.8050000,-0.0853801
0.8100000,0.8100000,0.8100000,-0.0820425
0.8150000,0.8150000,0.8150000,-0.0788569
0.8200000,0.8200000,0.8200000,-0.0758154
0.8250000,0.8250000,0.8250000,-0.0729107
0.8300000,0.8300000,0.8300000,-0.0701356
0.8350000,0.8350000,0.8350000,-0.0674838
0.8400000,0.8400000,0.8400000,-0.0649488
0.8450000,0.8450000,0.8450000,-0.0625248
0.8500000,0.8500000,0.8500000,-0.0602064
0.8550000,0.8550000,0.8550000,-0.0579882
0.8600000,0.8600000,0.8600000,-0.0558654
0.8650000,0.8650000,0.8650000,-0.0538332
0.8700000,0.8700000,0.8700000,-0.0518873
0.8750000,0.8750000,0.8750000,-0.0500234
0.8800000,0.8800000,0.8800000,-0.0482377
0.8850000,0.8850000,0.8850000,-0.0465263
0.8900000,0.8900000,0.8900000,-0.0448858
0.8950000,0.8950000,0.8950000,-0.0433128
0.9000000,0.9000000,0.9000000,-0.0418042
0.9050000,0.9050000,0.9050000,-0.0403568
0.9100000,0.9100000,0.9100000,-0.0389680
0.9150000,0.9150000,0.9150000,-0.0376349
0.9200000,0.9200000,0.9200000,-0.0363551
0.9250000,0.9250000,0.9250000,-0.0351260
0.9300000,0.9300000,0.9300000,-0.0339455
0.9350000,0.9350000,0.9350000,-0.0328113
0.9400000,0.9400000,0.9400000,-0.0317213
0.9450000,0.9450000,0.9450000,-0.0306736
0.9500000,0.9500000,0.9500000,-0.0296663
0.9550000,0.9550000,0.9550000,-0.0286976
0.9600000,0.9600000,0.9600000,-0.0277658
0.9650000,0.9650000,0.9650000,-0.0268694
0.9700000,0.9700000,0.9700000,-0.0260067
0.9750000,0.9750000,0.9750000,-0.0251764
0.9800000,0.9800000,0.9800000,-0.0243770
0.9850000,0.9850000,0.9850000,-0.0236072
0.9900000,0.9900000,0.9900000,-0.0228659
0.9950000,0.9950000,0.9950000,-0.0221517
1.0000000,1.0000000,1.0000000,-0.0214635
1.0050000,1.0050000,1.0050000,-0.0208003
1.0100000,1.0100000,1.0100000,-0.0201610
1.0150000,1.0150000,1.0150000,-0.0195447
1.0200000,1.0200000,1.0200000,-0.0189504
1.0250000,1.0250000,1.0250000,-0.0183771
1.0300000,1.0300000,1.0300000,-0.0178241
1.0350000,1.0350000,1.0350000,-0.0172905
1.0400000,1.0400000,1.0400000,-0.0167756
1.0450000,1.0450000,1.0450000,-0.0162786
1.0500000,1.0500000,1.0500000,-0.0157987
1.0550000,1.0550000,1.0550000,-0.0153354
1.0600000,1.0600000,1.0600000,-0.0148879
1.0650000,1.0650000,1.0650000,-0.0144557
1.0700000,1.0700000,1.0700000,-0.0140381
1.0750000,1.0750000,1.0750000,-0.0136346
1.0800000,1.0800000,1.0800000,-0.0132447
1.0850000,1.0850000,1.0850000,-0.0128677
1.0900000,1.0900000,1.0900000,-0.0125033
1.0950000,1.0950000,1.0950000,-0.0121509
1.1000000,1.1000000,1.1000000,-0.0118102
1.1050000,1.1050000,1.1050000,-0.0114805
1.1100000,1.1100000,1.1100000,-0.0111616
1.1150000,1.1150000,1.1150000,-0.0108531
1.1200000,1.1200000,1.1200000,-0.0105545
1.1250000,1.1250000,1.1250000,-0.0102655
1.1300000,1.1300000,1.1300000,-0.0099857
1.1350000,1.1350000,1.1350000,-0.0097148
1.1400000,1.1400000,1.1400000,-0.0094525
1.1450000,1.1450000,1.1450000,-0.0091985
1.1500000,1.1500000,1.1500000,-0.0089524
1.1550000,1.1550000,1.1550000,-0.0087141
1.1600000,1.1600000,1.1600000,-0.0084831
1.1650000,1.1650000,1.1650000,-0.0082592
1.1700000,1.1700000,1.1700000,-0.0080423
1.1750000,1.1750000,1.1750000,-0.0078320
1.1800000,1.1800000,1.1800000,-0.0076281
1.1850000,1.1850000,1.1850000,-0.0074305
1.1900000,1.1900000,1.1900000,-0.0072388
1.1950000,1.1950000,1.1950000,-0.0070528
1.2000000,1.2000000,1.2000000,-0.0068725
1.2050000,1.2050000,1.2050000,-0.0066975
1.2100000,1.2100000,1.2100000,-0.0065277
1.2150000,1.2150000,1.2150000,-0.0063630
1.2200000,1.2200000,1.2200000,-0.0062031
1.2250000,1.2250000,1.2250000,-0.0060478
1.2300000,1.2300000,1.2300000,-0.0058972
1.2350000,1.2350000,1.2350000,-0.0057509
1.2400000,1.2400000,1.2400000,-0.0056088
1.2450000,1.2450000,1.2450000,-0.0054708
1.2500000,1.2500000,1.2500000,-0.0053368
1.2550000,1.2550000,1.2550000,-0.0052066
1.2600000,1.2600000,1.2600000,-0.0050801
1.2650000,1.2650000,1.2650000,-0.0049572
1.2700000,1.2700000,1.2700000,-0.0048378
1.2750000,1.2750000,1.2750000,-0.0047218
1.2800000,1.2800000,1.2800000,-0.0046089
1.2850000,1.2850000,1.2850000,-0.0044993
1.2900000,1.2900000,1.2900000,-0.0043926
1.2950000,1.2950000,1.2950000,-0.0042889
1.3000000,1.3000000,1.3000000,-0.0041881
1.3050000,1.3050000,1.3050000,-0.0040901
1.3100000,1.3100000,1.3100000,-0.0039947
1.3150000,1.3150000,1.3150000,-0.0039019
1.3200000,1.3200000,1.3200000,-0.0038116
1.3250000,1.3250000,1.3250000,-0.0037238
1.3300000,1.3300000,1.3300000,-0.0036383
1.3350000,1.3350000,1.3350000,-0.0035551
1.3400000,1.3400000,1.3400000,-0.0034741
1.3450000,1.3450000,1.3450000,-0.0033953
1.3500000,1.3500000,1.3500000,-0.0033186
1.3550000,1.3550000,1.3550000,-0.0032439
1.3600000,1.3600000,1.3600000,-0.0031711
1.3650000,1.3650000,1.3650000,-0.0031003
1.3700000,1.3700000,1.3700000,-0.0030313
1.3750000,1.3750000,1.3750000,-0.0029641
1.3800000,1.3800000,1.3800000,-0.0028986
1.3850000,1.3850000,1.3850000,-0.0028348
1.3900000,1.3900000,1.3900000,-0.0027727
1.3950000,1.3950000,1.3950000,-0.0027121
1.4000000,1.4000000,1.4000000,-0.0026531
1.4050000,1.4050000,1.4050000,-0.0025956
1.4100000,1.4100000,1.4100000,-0.0025395
1.4150000,1.4150000,1.4150000,-0.0024849
1.4200000,1.4200000,1.4200000,-0.0024316
1.4250000,1.4250000,1.4250000,-0.0023797
1.4300000,1.4300000,1.4300000,-0.0023290
1.4350000,1.4350000,1.4350000,-0.0022796
1.4400000,1.4400000,1.4400000,-0.0022314
1.4450000,1.4450000,1.4450000,-0.0021845
1.4500000,1.4500000,1.4500000,-0.0021386
1.4550000,1.4550000,1.4550000,-0.0020939
1.4600000,1.4600000,1.4600000,-0.0020503
1.4650000,1.4650000,1.4650000,-0.0020077
1.4700000,1.4700000,1.4700000,-0.0019662
1.4750000,1.4750000,1.4750000,-0.0019257
1.4800000,1.4800000,1.4800000,-0.0018861
1.4850000,1.4850000,1.4850000,-0.0018475
1.4900000,1.4900000,1.4900000,-0.0018098
1.4950000,1.4950000,1.4950000,-0.0017730
1.5000000,1.5000000,1.5000000,-0.0017371
1.5050000,1.5050000,1.5050000,-0.0017021
1.5100000,1.5100000,1.5100000,-0.0016678
1.5150000,1.5150000,1.5150000,-0.0016344
1.5200000,1.5200000,1.5200000,-0.0016017
1.5250000,1.5250000,1.5250000,-0.0015698
1.5300000,1.5300000,1.5300000,-0.0015387
1.5350000,1.5350000,1.5350000,-0.0015082
1.5400000,1.5400000,1.5400000,-0.0014785
1.5450000,1.5450000,1.5450000,-0.0014495
1.5500000,1.5500000,1.5500000,-0.0014211
1.5550000,1.5550000,1.5550000,-0.0013933
1.5600000,1.5600000,1.5600000,-0.0013662
1.5650000,1.5650000,1.5650000,-0.0013397
1.5700000,1.5700000,1.5700000,-0.0013138
1.5750000,1.5750000,1.5750000,-0.0012885
1.5800000,1.5800000,1.5800000,-0.0012638
1.5850000,1.5850000,1.5850000,-0.0012396
1.5900000,1.5900000,1.5900000,-0.0012160
1.5950000,1.5950000,1.5950000,-0.0011929
