# r[nm],d[nm],daligned[nm],UwaterUCD(d)[kj/mol]
0.0000000,0.0000000,0.0000000,303413002.0331920
0.0050000,0.0050000,0.0050000,129234251.6792535
0.0100000,0.0100000,0.0100000,58435960.7327762
0.0150000,0.0150000,0.0150000,27908900.9158675
0.0200000,0.0200000,0.0200000,14034906.5768154
0.0250000,0.0250000,0.0250000,7419655.2514650
0.0300000,0.0300000,0.0300000,4120558.7589800
0.0350000,0.0350000,0.0350000,2402427.4599824
0.0400000,0.0400000,0.0400000,1468453.6814894
0.0450000,0.0450000,0.0450000,937958.8370393
0.0500000,0.0500000,0.0500000,622615.3937993
0.0550000,0.0550000,0.0550000,428102.0400998
0.0600000,0.0600000,0.0600000,303454.9229449
0.0650000,0.0650000,0.0650000,220871.9044297
0.0700000,0.0700000,0.0700000,164666.7943973
0.0750000,0.0750000,0.0750000,125676.5155515
0.0800000,0.0800000,0.0800000,98360.5205451
0.0850000,0.0850000,0.0850000,79262.8693279
0.0900000,0.0900000,0.0900000,62350.9343650
0.0950000,0.0950000,0.0950000,48939.9772998
0.1000000,0.1000000,0.1000000,39191.1242729
0.1050000,0.1050000,0.1050000,32080.8196874
0.1100000,0.1100000,0.1100000,25351.3638818
0.1150000,0.1150000,0.1150000,19415.8526404
0.1200000,0.1200000,0.1200000,15010.4412859
0.1250000,0.1250000,0.1250000,11712.3950660
0.1300000,0.1300000,0.1300000,9222.1052091
0.1350000,0.1350000,0.1350000,7325.3731912
0.1400000,0.1400000,0.1400000,5764.6023682
0.1450000,0.1450000,0.1450000,4542.7660788
0.1500000,0.1500000,0.1500000,3603.2293905
0.1550000,0.1550000,0.1550000,2875.4382644
0.1600000,0.1600000,0.1600000,2307.5802217
0.1650000,0.1650000,0.1650000,1861.3728402
0.1700000,0.1700000,0.1700000,1520.7538068
0.1750000,0.1750000,0.1750000,1239.6460605
0.1800000,0.1800000,0.1800000,1014.4231279
0.1850000,0.1850000,0.1850000,813.7590509
0.1900000,0.1900000,0.1900000,639.5594953
0.1950000,0.1950000,0.1950000,504.4215886
0.2000000,0.2000000,0.2000000,399.1784942
0.2050000,0.2050000,0.2050000,316.9161023
0.2100000,0.2100000,0.2100000,252.3955726
0.2150000,0.2150000,0.2150000,201.6292692
0.2200000,0.2200000,0.2200000,161.5683033
0.2250000,0.2250000,0.2250000,129.8704530
0.2300000,0.2300000,0.2300000,104.7252870
0.2350000,0.2350000,0.2350000,84.7223685
0.2400000,0.2400000,0.2400000,68.7574682
0.2450000,0.2450000,0.2450000,55.9696905
0.2500000,0.2500000,0.2500000,45.6936397
0.2550000,0.2550000,0.2550000,37.4155633
0.2600000,0.2600000,0.2600000,30.7350503
0.2650000,0.2650000,0.2650000,25.3350187
0.2700000,0.2700000,0.2700000,20.9598375
0.2750000,0.2750000,0.2750000,17.4019513
0.2800000,0.2800000,0.2800000,14.4954640
0.2850000,0.2850000,0.2850000,12.1123835
0.2900000,0.2900000,0.2900000,10.1573355
0.2950000,0.2950000,0.2950000,8.5593582
0.3000000,0.3000000,0.3000000,7.2627824
0.3050000,0.3050000,0.3050000,6.2199761
0.3100000,0.3100000,0.3100000,5.3871107
0.3150000,0.3150000,0.3150000,4.7227724
0.3200000,0.3200000,0.3200000,4.1887994
0.3250000,0.3250000,0.3250000,3.7524055
0.3300000,0.3300000,0.3300000,3.3881539
0.3350000,0.3350000,0.3350000,3.0782642
0.3400000,0.3400000,0.3400000,2.8108864
0.3450000,0.3450000,0.3450000,2.5775998
0.3500000,0.3500000,0.3500000,2.3717263
0.3550000,0.3550000,0.3550000,2.1878403
0.3600000,0.3600000,0.3600000,2.0214759
0.3650000,0.3650000,0.3650000,1.8679796
0.3700000,0.3700000,0.3700000,1.7212151
0.3750000,0.3750000,0.3750000,1.5739868
0.3800000,0.3800000,0.3800000,1.4204310
0.3850000,0.3850000,0.3850000,1.2584828
0.3900000,0.3900000,0.3900000,1.0904277
0.3950000,0.3950000,0.3950000,0.9213526
0.4000000,0.4000000,0.4000000,0.7569989
0.4050000,0.4050000,0.4050000,0.6023647
0.4100000,0.4100000,0.4100000,0.4612145
0.4150000,0.4150000,0.4150000,0.3359446
0.4200000,0.4200000,0.4200000,0.2272970
0.4250000,0.4250000,0.4250000,0.1336157
0.4300000,0.4300000,0.4300000,0.0494370
0.4350000,0.4350000,0.4350000,-0.0353554
0.4400000,0.4400000,0.4400000,-0.1327619
0.4450000,0.4450000,0.4450000,-0.2502577
0.4500000,0.4500000,0.4500000,-0.3861229
0.4550000,0.4550000,0.4550000,-0.5307605
0.4600000,0.4600000,0.4600000,-0.6720296
0.4650000,0.4650000,0.4650000,-0.7999986
0.4700000,0.4700000,0.4700000,-0.9089063
0.4750000,0.4750000,0.4750000,-0.9969491
0.4800000,0.4800000,0.4800000,-1.0652345
0.4850000,0.4850000,0.4850000,-1.1165347
0.4900000,0.4900000,0.4900000,-1.1540073
0.4950000,0.4950000,0.4950000,-1.1802519
0.5000000,0.5000000,0.5000000,-1.1970829
0.5050000,0.5050000,0.5050000,-1.2058373
0.5100000,0.5100000,0.5100000,-1.2076163
0.5150000,0.5150000,0.5150000,-1.2032124
0.5200000,0.5200000,0.5200000,-1.1930134
0.5250000,0.5250000,0.5250000,-1.1771367
0.5300000,0.5300000,0.5300000,-1.1557053
0.5350000,0.5350000,0.5350000,-1.1290571
0.5400000,0.5400000,0.5400000,-1.0978002
0.5450000,0.5450000,0.5450000,-1.0627488
0.5500000,0.5500000,0.5500000,-1.0248130
0.5550000,0.5550000,0.5550000,-0.9848975
0.5600000,0.5600000,0.5600000,-0.9438304
0.5650000,0.5650000,0.5650000,-0.9023248
0.5700000,0.5700000,0.5700000,-0.8609662
0.5750000,0.5750000,0.5750000,-0.8202162
0.5800000,0.5800000,0.5800000,-0.7804247
0.5850000,0.5850000,0.5850000,-0.7418465
0.5900000,0.5900000,0.5900000,-0.7046579
0.5950000,0.5950000,0.5950000,-0.6689722
0.6000000,0.6000000,0.6000000,-0.6348534
0.6050000,0.6050000,0.6050000,-0.6023276
0.6100000,0.6100000,0.6100000,-0.5713920
0.6150000,0.6150000,0.6150000,-0.5420231
0.6200000,0.6200000,0.6200000,-0.5141816
0.6250000,0.6250000,0.6250000,-0.4878180
0.6300000,0.6300000,0.6300000,-0.4628755
0.6350000,0.6350000,0.6350000,-0.4392929
0.6400000,0.6400000,0.6400000,-0.4170068
0.6450000,0.6450000,0.6450000,-0.3959529
0.6500000,0.6500000,0.6500000,-0.3760674
0.6550000,0.6550000,0.6550000,-0.3572875
0.6600000,0.6600000,0.6600000,-0.3395523
0.6650000,0.6650000,0.6650000,-0.3228031
0.6700000,0.6700000,0.6700000,-0.3069835
0.6750000,0.6750000,0.6750000,-0.2920397
0.6800000,0.6800000,0.6800000,-0.2779207
0.6850000,0.6850000,0.6850000,-0.2645781
0.6900000,0.6900000,0.6900000,-0.2519660
0.6950000,0.6950000,0.6950000,-0.2400412
0.7000000,0.7000000,0.7000000,-0.2287630
0.7050000,0.7050000,0.7050000,-0.2180931
0.7100000,0.7100000,0.7100000,-0.2079955
0.7150000,0.7150000,0.7150000,-0.1984363
0.7200000,0.7200000,0.7200000,-0.1893838
0.7250000,0.7250000,0.7250000,-0.1808082
0.7300000,0.7300000,0.7300000,-0.1726815
0.7350000,0.7350000,0.7350000,-0.1649775
0.7400000,0.7400000,0.7400000,-0.1576717
0.7450000,0.7450000,0.7450000,-0.1507409
0.7500000,0.7500000,0.7500000,-0.1441636
0.7550000,0.7550000,0.7550000,-0.1379194
0.7600000,0.7600000,0.7600000,-0.1319895
0.7650000,0.7650000,0.7650000,-0.1263559
0.7700000,0.7700000,0.7700000,-0.1210020
0.7750000,0.7750000,0.7750000,-0.1159120
0.7800000,0.7800000,0.7800000,-0.1110713
0.7850000,0.7850000,0.7850000,-0.1064660
0.7900000,0.7900000,0.7900000,-0.1020831
0.7950000,0.7950000,0.7950000,-0.0979106
0.8000000,0.8000000,0.8000000,-0.0939368
0.8050000,0.8050000,0.8050000,-0.0901511
0.8100000,0.8100000,0.8100000,-0.0865433
0.8150000,0.8150000,0.8150000,-0.0831040
0.8200000,0.8200000,0.8200000,-0.0798241
0.8250000,0.8250000,0.8250000,-0.0766954
0.8300000,0.8300000,0.8300000,-0.0737098
0.8350000,0.8350000,0.8350000,-0.0708599
0.8400000,0.8400000,0.8400000,-0.0681386
0.8450000,0.8450000,0.8450000,-0.0655394
0.8500000,0.8500000,0.8500000,-0.0630561
0.8550000,0.8550000,0.8550000,-0.0606826
0.8600000,0.8600000,0.8600000,-0.0584135
0.8650000,0.8650000,0.8650000,-0.0562436
0.8700000,0.8700000,0.8700000,-0.0541678
0.8750000,0.8750000,0.8750000,-0.0521816
0.8800000,0.8800000,0.8800000,-0.0502805
0.8850000,0.8850000,0.8850000,-0.0484603
0.8900000,0.8900000,0.8900000,-0.0467172
0.8950000,0.8950000,0.8950000,-0.0450473
0.9000000,0.9000000,0.9000000,-0.0434472
0.9050000,0.9050000,0.9050000,-0.0419136
0.9100000,0.9100000,0.9100000,-0.0404433
0.9150000,0.9150000,0.9150000,-0.0390332
0.9200000,0.9200000,0.9200000,-0.0376806
0.9250000,0.9250000,0.9250000,-0.0363829
0.9300000,0.9300000,0.9300000,-0.0351373
0.9350000,0.9350000,0.9350000,-0.0339417
0.9400000,0.9400000,0.9400000,-0.0327936
0.9450000,0.9450000,0.9450000,-0.0316909
0.9500000,0.9500000,0.9500000,-0.0306316
0.9550000,0.9550000,0.9550000,-0.0296137
0.9600000,0.9600000,0.9600000,-0.0286353
0.9650000,0.9650000,0.9650000,-0.0276947
0.9700000,0.9700000,0.9700000,-0.0267903
0.9750000,0.9750000,0.9750000,-0.0259204
0.9800000,0.9800000,0.9800000,-0.0250835
0.9850000,0.9850000,0.9850000,-0.0242782
0.9900000,0.9900000,0.9900000,-0.0235031
0.9950000,0.9950000,0.9950000,-0.0227570
1.0000000,1.0000000,1.0000000,-0.0220386
1.0050000,1.0050000,1.0050000,-0.0213467
1.0100000,1.0100000,1.0100000,-0.0206801
1.0150000,1.0150000,1.0150000,-0.0200380
1.0200000,1.0200000,1.0200000,-0.0194191
1.0250000,1.0250000,1.0250000,-0.0188226
1.0300000,1.0300000,1.0300000,-0.0182475
1.0350000,1.0350000,1.0350000,-0.0176929
1.0400000,1.0400000,1.0400000,-0.0171581
1.0450000,1.0450000,1.0450000,-0.0166421
1.0500000,1.0500000,1.0500000,-0.0161443
1.0550000,1.0550000,1.0550000,-0.0156639
1.0600000,1.0600000,1.0600000,-0.0152002
1.0650000,1.0650000,1.0650000,-0.0147526
1.0700000,1.0700000,1.0700000,-0.0143204
1.0750000,1.0750000,1.0750000,-0.0139030
1.0800000,1.0800000,1.0800000,-0.0134997
1.0850000,1.0850000,1.0850000,-0.0131102
1.0900000,1.0900000,1.0900000,-0.0127338
1.0950000,1.0950000,1.0950000,-0.0123701
1.1000000,1.1000000,1.1000000,-0.0120184
1.1050000,1.1050000,1.1050000,-0.0116785
1.1100000,1.1100000,1.1100000,-0.0113498
1.1150000,1.1150000,1.1150000,-0.0110319
1.1200000,1.1200000,1.1200000,-0.0107245
1.1250000,1.1250000,1.1250000,-0.0104270
1.1300000,1.1300000,1.1300000,-0.0101392
1.1350000,1.1350000,1.1350000,-0.0098606
1.1400000,1.1400000,1.1400000,-0.0095911
1.1450000,1.1450000,1.1450000,-0.0093301
1.1500000,1.1500000,1.1500000,-0.0090774
1.1550000,1.1550000,1.1550000,-0.0088327
1.1600000,1.1600000,1.1600000,-0.0085957
1.1650000,1.1650000,1.1650000,-0.0083662
1.1700000,1.1700000,1.1700000,-0.0081438
1.1750000,1.1750000,1.1750000,-0.0079283
1.1800000,1.1800000,1.1800000,-0.0077195
1.1850000,1.1850000,1.1850000,-0.0075171
1.1900000,1.1900000,1.1900000,-0.0073210
1.1950000,1.1950000,1.1950000,-0.0071308
1.2000000,1.2000000,1.2000000,-0.0069463
1.2050000,1.2050000,1.2050000,-0.0067675
1.2100000,1.2100000,1.2100000,-0.0065940
1.2150000,1.2150000,1.2150000,-0.0064257
1.2200000,1.2200000,1.2200000,-0.0062624
1.2250000,1.2250000,1.2250000,-0.0061040
1.2300000,1.2300000,1.2300000,-0.0059503
1.2350000,1.2350000,1.2350000,-0.0058011
1.2400000,1.2400000,1.2400000,-0.0056562
1.2450000,1.2450000,1.2450000,-0.0055156
1.2500000,1.2500000,1.2500000,-0.0053791
1.2550000,1.2550000,1.2550000,-0.0052465
1.2600000,1.2600000,1.2600000,-0.0051177
1.2650000,1.2650000,1.2650000,-0.0049927
1.2700000,1.2700000,1.2700000,-0.0048712
1.2750000,1.2750000,1.2750000,-0.0047531
1.2800000,1.2800000,1.2800000,-0.0046384
1.2850000,1.2850000,1.2850000,-0.0045269
1.2900000,1.2900000,1.2900000,-0.0044186
1.2950000,1.2950000,1.2950000,-0.0043133
1.3000000,1.3000000,1.3000000,-0.0042109
1.3050000,1.3050000,1.3050000,-0.0041113
1.3100000,1.3100000,1.3100000,-0.0040145
1.3150000,1.3150000,1.3150000,-0.0039204
1.3200000,1.3200000,1.3200000,-0.0038288
1.3250000,1.3250000,1.3250000,-0.0037398
1.3300000,1.3300000,1.3300000,-0.0036531
1.3350000,1.3350000,1.3350000,-0.0035688
1.3400000,1.3400000,1.3400000,-0.0034868
1.3450000,1.3450000,1.3450000,-0.0034070
1.3500000,1.3500000,1.3500000,-0.0033293
1.3550000,1.3550000,1.3550000,-0.0032537
1.3600000,1.3600000,1.3600000,-0.0031800
1.3650000,1.3650000,1.3650000,-0.0031084
1.3700000,1.3700000,1.3700000,-0.0030386
1.3750000,1.3750000,1.3750000,-0.0029706
1.3800000,1.3800000,1.3800000,-0.0029044
1.3850000,1.3850000,1.3850000,-0.0028400
1.3900000,1.3900000,1.3900000,-0.0027772
1.3950000,1.3950000,1.3950000,-0.0027160
1.4000000,1.4000000,1.4000000,-0.0026564
1.4050000,1.4050000,1.4050000,-0.0025984
1.4100000,1.4100000,1.4100000,-0.0025418
1.4150000,1.4150000,1.4150000,-0.0024866
1.4200000,1.4200000,1.4200000,-0.0024329
1.4250000,1.4250000,1.4250000,-0.0023805
1.4300000,1.4300000,1.4300000,-0.0023294
1.4350000,1.4350000,1.4350000,-0.0022796
1.4400000,1.4400000,1.4400000,-0.0022310
1.4450000,1.4450000,1.4450000,-0.0021837
1.4500000,1.4500000,1.4500000,-0.0021375
1.4550000,1.4550000,1.4550000,-0.0020925
1.4600000,1.4600000,1.4600000,-0.0020486
1.4650000,1.4650000,1.4650000,-0.0020057
1.4700000,1.4700000,1.4700000,-0.0019639
1.4750000,1.4750000,1.4750000,-0.0019231
1.4800000,1.4800000,1.4800000,-0.0018833
1.4850000,1.4850000,1.4850000,-0.0018445
1.4900000,1.4900000,1.4900000,-0.0018066
1.4950000,1.4950000,1.4950000,-0.0017696
1.5000000,1.5000000,1.5000000,-0.0017335
1.5050000,1.5050000,1.5050000,-0.0016982
1.5100000,1.5100000,1.5100000,-0.0016638
1.5150000,1.5150000,1.5150000,-0.0016302
1.5200000,1.5200000,1.5200000,-0.0015974
1.5250000,1.5250000,1.5250000,-0.0015654
1.5300000,1.5300000,1.5300000,-0.0015341
1.5350000,1.5350000,1.5350000,-0.0015035
1.5400000,1.5400000,1.5400000,-0.0014737
1.5450000,1.5450000,1.5450000,-0.0014445
1.5500000,1.5500000,1.5500000,-0.0014160
1.5550000,1.5550000,1.5550000,-0.0013882
1.5600000,1.5600000,1.5600000,-0.0013610
1.5650000,1.5650000,1.5650000,-0.0013345
1.5700000,1.5700000,1.5700000,-0.0013085
1.5750000,1.5750000,1.5750000,-0.0012831
1.5800000,1.5800000,1.5800000,-0.0012583
1.5850000,1.5850000,1.5850000,-0.0012341
1.5900000,1.5900000,1.5900000,-0.0012104
1.5950000,1.5950000,1.5950000,-0.0011872
